 Legend
 2020-11-07 23-48-01 "4L9.1/9.5" ||| Режим: #1 : "RPM=4000, Пк=2.00   "; ^^^"Alpha определяет qc"^^^
 Файл : 4D56.tpl
 
.DSL4N1   Rus   PistMove   Step=0.20   Stroke=   95.00    
   ПАРАМЕТРЫ ВПРЫСКА, СМЕСЕОБРАЗОВАНИЯ, ТЕПЛОВЫДЕЛЕНИЯ И САЖЕОБРАЗОВАНИЯ 
 Comment
 Fi          Угол поворота коленчатого вала, [град.]                     
 dx/dFi      Скорость тепловыделения [1/град.]                           
 x           Доля выделившегося тепла                                    
 Uo          Скорость истечения топлива, [м/c]                           
 Pвпр        Давление перед соплами распылителя, [бар]                   
 NOx         Концентрация оксидов азота, [ppm]                           
 T_burn      Температура в зоне сгорания,[K]                             
 Soot        Концентрация сажевых частиц в цилиндре, [г/м3]              
 S_обол      Доля топлива в оболочке струи и пристеночного потока        
 S_ядр.C     Доля топлива в ядре свободной струи                         
 S_фронт     Доля топлива во фронте свободной струи                      
 S_ядр.W     Доля топлива в ядре пристеночного потока                    
 S_яд.Ws     Доля топлива в зонах пересечени пристеночных потоков        
 S_крыш      Доля топлива осевшего на поверхности крышки цилиндра        
 S_цил       Доля топлива осевшего на поверхности зеркала цилиндра       
 P_pist      Позиция поршня относительно НМТ, [мм]                       
 Spray_tip   Длина свободной струи без учета вихря, мм                   
 Spray_ang   Угол раскрытия внешнего контура струи, град.                
 Evap_zon    Доля испарившегося топлива в зонной модели                  
 Evap_1p     Доля испарившегося топлива (для порции #1)                  
 HRR         Скорость тепловыделения, [Дж/град.]                         
 Ksi_b       Степень эффективности использования воздушного заряда       
 I_LW_1p     Интеграл Livengood-Wu для порц. №1 (модиф. уравн. Толстова) 
 SMD         Средний диаметр капель по Заутеру, [мкм]                    
 Inj_pofile  Характеристика впрыска (безразмерная)                       
 Names
  Fi          dx/dFi      x           Uo          Pвпр        NOx         T_burn      Soot        S_обол      S_ядр.C     S_фронт     S_ядр.W     S_яд.Ws     S_крыш      S_цил       P_pist      Spray_tip   Spray_ang   Evap_zon    Evap_1p     HRR         Ksi_b       I_LW_1p     SMD         Inj_pofile
 Arrays
   350.0       0.000       0.000       0.000       96.74       0.000       1030.      0.9359E-01   0.000       0.000       0.000       0.000       0.000       0.000       0.000        94.089    0.2000E+26   69.32       0.000      0.2000E+26   0.000      0.2000E+26   0.000      0.2000E+26 -0.1000E-01
   350.2       0.000       0.000       23.47       107.7       0.000       1032.      0.9360E-01  0.5025E-03  0.7837E-04  0.6817E-06   0.000       0.000       0.000       0.000        94.124     1.773       51.24      0.8502E-04  0.2199E-06   0.000      0.2000E+26  0.4770E-01   54.58     -0.9432E-02
   350.4       0.000       0.000       46.93       118.7       0.000       1034.      0.9360E-01  0.1085E-02  0.1874E-03  0.2125E-05   0.000       0.000       0.000       0.000        94.158     3.285       38.64      0.2956E-03  0.1747E-05   0.000      0.2000E+26  0.9579E-01   37.75     -0.8864E-02
   350.6       0.000       0.000       70.40       129.7       0.000       1036.      0.9360E-01  0.2284E-02  0.5327E-03  0.9445E-05   0.000       0.000       0.000       0.000        94.193     4.367       35.11      0.7077E-03  0.6560E-05   0.000      0.2000E+26  0.1443       30.17     -0.8296E-02
   350.8       0.000       0.000       93.86       140.6       0.000       1038.      0.9360E-01  0.3615E-02  0.9788E-03  0.2344E-04   0.000       0.000       0.000       0.000        94.227     5.327       32.88      0.1368E-02  0.1753E-04   0.000      0.2000E+26  0.1931       25.89     -0.7728E-02
   351.0       0.000       0.000       117.3       151.6       0.000       1040.      0.9360E-01  0.5386E-02  0.1764E-02  0.5986E-04   0.000       0.000       0.000       0.000        94.262     6.199       31.30      0.2310E-02  0.3834E-04   0.000      0.2000E+26  0.2424       22.99     -0.7160E-02
   351.2       0.000       0.000       140.7       178.2       0.000       1041.      0.9361E-01  0.7293E-02  0.2716E-02  0.1160E-03   0.000       0.000       0.000       0.000        94.293     7.007       30.08      0.3546E-02  0.7357E-04   0.000      0.2000E+26  0.2920       20.88     -0.6594E-02
   351.4       0.000       0.000       163.5       204.8       0.000       1043.      0.9361E-01  0.9460E-02  0.3988E-02  0.2098E-03   0.000       0.000       0.000       0.000        94.324     7.769       29.08      0.5058E-02  0.1283E-03   0.000      0.2000E+26  0.3419       19.27     -0.6042E-02
   351.6       0.000       0.000       186.2       231.5       0.000       1044.      0.9362E-01  0.1177E-01  0.5519E-02  0.3514E-03   0.000       0.000       0.000       0.000        94.354     8.491       28.24      0.6778E-02  0.2093E-03   0.000      0.2000E+26  0.3923       17.85     -0.5493E-02
   351.8       0.000       0.000       208.9       258.1       0.000       1046.      0.9363E-01  0.1424E-01  0.7353E-02  0.5494E-03   0.000       0.000       0.000       0.000        94.385     9.178       27.52      0.8702E-02  0.3230E-03   0.000      0.2000E+26  0.4430       16.79     -0.4944E-02
   352.0       0.000       0.000       231.6       284.7       0.000       1048.      0.9364E-01  0.1685E-01  0.9528E-02  0.8398E-03   0.000       0.000       0.000       0.000        94.416     9.836       26.90      0.1083E-01  0.4773E-03   0.000      0.2000E+26  0.4940       15.90     -0.4395E-02
   352.2       0.000       0.000       254.2       319.6       0.000       1049.      0.8334E-01  0.1956E-01  0.1196E-01  0.1199E-02   0.000       0.000       0.000       0.000        94.444     10.47       26.35      0.1318E-01  0.6805E-03   0.000      0.2000E+26  0.5455       15.12     -0.3846E-02
   352.4       0.000       0.000       276.9       354.5       0.000       1051.      0.7304E-01  0.2233E-01  0.1473E-01  0.1695E-02   0.000       0.000       0.000       0.000        94.471     11.07       25.86      0.1575E-01  0.9414E-03   0.000      0.2000E+26  0.5972       14.45     -0.3298E-02
   352.6       0.000       0.000       291.9       389.4       0.000       1052.      0.6273E-01  0.2513E-01  0.1765E-01  0.2253E-02   0.000       0.000       0.000       0.000        94.498     11.66       25.42      0.1853E-01  0.1267E-02   0.000      0.2000E+26  0.6493       13.96     -0.2935E-02
   352.8       0.000       0.000       306.3       424.3       0.000       1053.      0.5243E-01  0.2790E-01  0.2091E-01  0.3026E-02   0.000       0.000       0.000       0.000        94.525     12.22       25.03      0.2154E-01  0.1665E-02   0.000      0.2000E+26  0.7017       13.60     -0.2585E-02
   353.0       0.000       0.000       320.8       459.2       0.000       1055.      0.4213E-01  0.3068E-01  0.2425E-01  0.3851E-02   0.000       0.000       0.000       0.000        94.553     12.76       24.67      0.2476E-01  0.2140E-02   0.000      0.2000E+26  0.7545       13.27     -0.2235E-02
   353.2       0.000       0.000       335.3       474.4       0.000       1056.      0.3743E-01  0.3341E-01  0.2788E-01  0.4974E-02   0.000       0.000       0.000       0.000        94.576     13.29       24.34      0.2820E-01  0.2699E-02   0.000      0.2000E+26  0.8076       12.97     -0.1884E-02
   353.4       0.000       0.000       349.7       489.5       0.000       1057.      0.3273E-01  0.3613E-01  0.3155E-01  0.6135E-02   0.000       0.000       0.000       0.000        94.600     13.80       24.04      0.3186E-01  0.3351E-02   0.000      0.2000E+26  0.8610       12.68     -0.1534E-02
   353.6       0.000       0.000       361.1       504.6       0.000       1058.      0.2802E-01  0.3879E-01  0.3538E-01  0.7627E-02   0.000       0.000       0.000       0.000        94.624     14.30       23.76      0.3574E-01  0.4101E-02   0.000      0.2000E+26  0.9146       12.39     -0.1259E-02
   353.8       0.000       0.000       364.7       519.8       0.000       1059.      0.2332E-01  0.4141E-01  0.3918E-01  0.9180E-02   0.000       0.000       0.000       0.000        94.648     14.78       23.50      0.3983E-01  0.4950E-02   0.000      0.2000E+26  0.9686       12.32     -0.1171E-02
   354.0       0.000       0.000       363.9       534.9       0.000       1060.      0.1862E-01  0.4385E-01  0.4284E-01  0.1109E-01   0.000       0.000       0.000       0.000        94.671     15.25       23.26      0.4411E-01  0.5896E-02   0.000      0.2000E+26   1.000       12.34     -0.1190E-02
   354.2       0.000       0.000       363.2       536.4      0.4925E-02   1299.      0.5864E-01  0.4625E-01  0.4640E-01  0.1311E-01   0.000       0.000       0.000       0.000        94.691     15.70       23.03      0.4859E-01  0.6938E-02   0.000      0.2000E+26  0.2000E+26   12.35     -0.1209E-02
   354.4      0.5711E-04  0.1142E-04   362.4       537.9      0.9849E-02   1538.      0.9866E-01  0.4856E-01  0.4971E-01  0.1547E-01   0.000       0.000       0.000       0.000        94.711     16.15       22.82      0.5326E-01  0.2000E+26  0.8737E-01  0.9860      0.2000E+26   12.36     -0.1228E-02
   354.6      0.4167E-03  0.9477E-04   361.6       539.4      0.1477E-01   1776.      0.1387      0.5085E-01  0.5289E-01  0.1796E-01   0.000       0.000       0.000       0.000        94.731     16.58       22.62      0.5809E-01  0.2000E+26  0.6376      0.9672      0.2000E+26   12.31     -0.1247E-02
   354.8      0.9735E-03  0.2895E-03   361.1       541.0      0.1970E-01   2015.      0.1787      0.5312E-01  0.5587E-01  0.2068E-01   0.000       0.000       0.000       0.000        94.752     17.00       22.43      0.6308E-01  0.2000E+26   1.490      0.9485      0.2000E+26   12.32     -0.1258E-02
   355.0      0.1620E-02  0.6135E-03   362.8       542.5      0.2462E-01   2254.      0.2187      0.5541E-01  0.5869E-01  0.2357E-01   0.000       0.000       0.000       0.000        94.772     17.41       22.25      0.6823E-01  0.2000E+26   2.479      0.9299      0.2000E+26   12.29     -0.1217E-02
   355.2      0.2275E-02  0.1068E-02   365.1       547.7      0.4047       2331.      0.9376      0.5775E-01  0.6134E-01  0.2663E-01   0.000       0.000       0.000       0.000        94.788     17.81       22.08      0.7353E-01  0.2000E+26   3.480      0.9113      0.2000E+26   12.24     -0.1161E-02
   355.4      0.2858E-02  0.1640E-02   367.5       553.0      0.7847       2408.       1.656      0.6019E-01  0.6375E-01  0.2988E-01   0.000       0.000       0.000       0.000        94.804     18.20       21.92      0.7897E-01  0.2000E+26   4.372      0.8929      0.2000E+26   12.20     -0.1104E-02
   355.6      0.1580E-01  0.4801E-02   369.8       558.3       1.165       2485.       2.375      0.6269E-01  0.6600E-01  0.3325E-01   0.000       0.000       0.000       0.000        94.821     18.59       21.77      0.8455E-01  0.2000E+26   24.18      0.8745      0.2000E+26   12.11     -0.1047E-02
   355.8      0.2756E-01  0.1031E-01   372.2       563.5       1.545       2562.       3.094      0.6537E-01  0.6801E-01  0.3677E-01   0.000       0.000       0.000       0.000        94.837     18.96       21.63      0.9025E-01  0.2000E+26   42.17      0.8563      0.2000E+26   12.07     -0.9906E-03
   356.0      0.2832E-01  0.1598E-01   374.5       568.8       1.925       2639.       3.813      0.6811E-01  0.6992E-01  0.4034E-01   0.000       0.000       0.000       0.000        94.854     19.32       21.49      0.9607E-01  0.2000E+26   43.33      0.8383      0.2000E+26   12.03     -0.9352E-03
   356.2      0.2848E-01  0.2167E-01   374.4       568.7       2.957       2645.       4.213      0.7106E-01  0.7208E-01  0.4347E-01   0.000       0.000       0.000       0.000        94.867     19.68       21.36      0.1020      0.2000E+26   43.58      0.8205      0.2000E+26   12.03     -0.9363E-03
   356.4      0.2846E-01  0.2736E-01   374.1       568.6       3.989       2651.       4.612      0.7404E-01  0.7429E-01  0.4651E-01   0.000       0.000       0.000       0.000        94.879     20.03       21.24      0.1080      0.2000E+26   43.54      0.8028      0.2000E+26   12.03     -0.9434E-03
   356.6      0.2829E-01  0.3302E-01   373.7       568.5       5.022       2658.       5.011      0.7733E-01  0.7686E-01  0.4888E-01   0.000       0.000       0.000       0.000        94.892     20.37       21.12      0.1142      0.2000E+26   43.29      0.7854      0.2000E+26   11.99     -0.9528E-03
   356.8      0.3092E-01  0.3921E-01   373.4       568.4       6.054       2664.       5.411      0.8064E-01  0.7944E-01  0.5120E-01   0.000       0.000       0.000       0.000        94.905     20.70       21.01      0.1204      0.2000E+26   47.31      0.7682      0.2000E+26   12.00     -0.9622E-03
   357.0      0.3336E-01  0.4588E-01   373.0       568.3       7.087       2670.       5.810      0.8428E-01  0.8203E-01  0.5319E-01   0.000       0.000       0.000       0.000        94.918     21.02       20.90      0.1266      0.2000E+26   51.04      0.7513      0.2000E+26   12.01     -0.9716E-03
   357.2      0.3306E-01  0.5249E-01   373.4       575.6       8.971       2672.       5.901      0.8800E-01  0.8454E-01  0.5517E-01   0.000       0.000       0.000       0.000        94.927     21.34       20.79      0.1330      0.2000E+26   50.58      0.7347      0.2000E+26   12.00     -0.9612E-03
   357.4      0.3272E-01  0.5904E-01   374.7       582.8       10.85       2675.       5.991      0.9215E-01  0.8673E-01  0.5712E-01   0.000       0.000       0.000       0.000        94.936     21.65       20.69      0.1393      0.2000E+26   50.07      0.7184      0.2000E+26   11.98     -0.9304E-03
   357.6      0.3246E-01  0.6553E-01   377.3       590.1       12.74       2677.       6.082      0.9646E-01  0.8882E-01  0.5902E-01   0.000       0.000       0.000       0.000        94.945     21.96       20.60      0.1458      0.2000E+26   49.66      0.7024      0.2000E+26   11.90     -0.8674E-03
   357.8      0.3225E-01  0.7198E-01   379.9       597.3       14.62       2680.       6.172      0.1012      0.9069E-01  0.6081E-01   0.000       0.000       0.000       0.000        94.954     22.26       20.50      0.1522      0.2000E+26   49.35      0.6867      0.2000E+26   11.86     -0.8045E-03
   358.0      0.3195E-01  0.7837E-01   382.5       604.6       16.51       2682.       6.263      0.1061      0.9253E-01  0.6245E-01   0.000       0.000       0.000       0.000        94.963     22.55       20.42      0.1588      0.2000E+26   48.89      0.6713      0.2000E+26   11.82     -0.7415E-03
   358.2      0.3190E-01  0.8475E-01   385.1       604.1       19.37       2685.       6.268      0.1114      0.9434E-01  0.6386E-01   0.000       0.000       0.000       0.000        94.969     22.83       20.33      0.1654      0.2000E+26   48.81      0.6564      0.2000E+26   11.77     -0.6786E-03
   358.4      0.3184E-01  0.9112E-01   386.7       603.6       22.23       2687.       6.273      0.1169      0.9597E-01  0.6523E-01   0.000       0.000       0.000       0.000        94.974     23.11       20.25      0.1720      0.2000E+26   48.71      0.6418      0.2000E+26   11.75     -0.6397E-03
   358.6      0.3176E-01  0.9747E-01   387.4       603.2       25.09       2689.       6.279      0.1227      0.9742E-01  0.6654E-01   0.000       0.000       0.000       0.000        94.980     23.39       20.21      0.1786      0.2000E+26   48.60      0.6276      0.2000E+26   11.71     -0.6233E-03
   358.8      0.3168E-01  0.1038       386.3       602.7       27.95       2692.       6.284      0.1286      0.9871E-01  0.6782E-01   0.000       0.000       0.000       0.000        94.985     23.68       20.22      0.1853      0.2000E+26   48.47      0.6138      0.2000E+26   11.73     -0.6484E-03
   359.0      0.3158E-01  0.1101       385.3       602.3       30.81       2694.       6.289      0.1346      0.9992E-01  0.6909E-01   0.000       0.000       0.000       0.000        94.991     23.95       20.22      0.1921      0.2000E+26   48.32      0.6004      0.2000E+26   11.75     -0.6735E-03
   359.2      0.3148E-01  0.1164       384.3       594.2       34.70       2696.       6.259      0.1406      0.1011      0.7029E-01  0.3148E-07   0.000       0.000       0.000        94.993     24.21       20.22      0.1989      0.2000E+26   48.16      0.5874      0.2000E+26   11.76     -0.6985E-03
   359.4      0.3136E-01  0.1227       383.2       586.2       38.59       2698.       6.228      0.1466      0.1024      0.7148E-01  0.7338E-07   0.000       0.000       0.000        94.995     24.48       20.22      0.2057      0.2000E+26   47.98      0.5749      0.2000E+26   11.78     -0.7236E-03
   359.6      0.3123E-01  0.1289       381.2       578.2       42.48       2700.       6.198      0.1527      0.1035      0.7257E-01  0.2434E-04   0.000       0.000       0.000        94.996     24.74       20.22      0.2125      0.2000E+26   47.78      0.5629      0.2000E+26   11.81     -0.7718E-03
   359.8      0.3109E-01  0.1352       378.5       570.1       46.36       2702.       6.167      0.1589      0.1046      0.7364E-01  0.5236E-04   0.000       0.000       0.000        94.998     24.99       20.22      0.2194      0.2000E+26   47.57      0.5513      0.2000E+26   11.85     -0.8386E-03
   360.0      0.3094E-01  0.1413       374.3       562.1       50.25       2704.       6.137      0.1660      0.1050      0.7381E-01  0.4547E-03   0.000       0.000       0.000        95.000     25.25       20.22      0.2263      0.2000E+26   47.34      0.5401      0.2000E+26   11.92     -0.9403E-03
   360.2      0.3078E-01  0.1475       369.9       557.2       55.11       2705.       6.089      0.1732      0.1054      0.7395E-01  0.9020E-03   0.000       0.000       0.000        94.998     25.50       20.22      0.2333      0.2000E+26   47.09      0.5295      0.2000E+26   12.00     -0.1045E-02
   360.4      0.3061E-01  0.1536       365.6       552.3       59.98       2707.       6.042      0.1807      0.1052      0.7392E-01  0.1705E-02   0.000       0.000       0.000        94.996     25.75       20.22      0.2402      0.2000E+26   46.83      0.5193      0.2000E+26   12.07     -0.1150E-02
   360.6      0.3043E-01  0.1597       361.3       547.4       64.84       2708.       5.994      0.1882      0.1048      0.7369E-01  0.2727E-02   0.000       0.000       0.000        94.995     25.99       20.22      0.2472      0.2000E+26   46.55      0.5096      0.2000E+26   12.15     -0.1255E-02
   360.8      0.3024E-01  0.1658       356.9       542.5       69.70       2710.       5.947      0.1958      0.1042      0.7275E-01  0.4570E-02   0.000       0.000       0.000        94.993     26.24       20.22      0.2542      0.2000E+26   46.26      0.5004      0.2000E+26   12.23     -0.1360E-02
   361.0      0.3005E-01  0.1718       357.6       537.6       74.56       2711.       5.899      0.2032      0.1036      0.7169E-01  0.6604E-02   0.000       0.000       0.000        94.991     26.48       20.22      0.2613      0.2000E+26   45.97      0.4917      0.2000E+26   12.22     -0.1345E-02
   361.2      0.2986E-01  0.1777       359.1       542.9       80.27       2712.       5.850      0.2104      0.1032      0.7039E-01  0.9034E-02   0.000       0.000       0.000        94.985     26.72       20.22      0.2683      0.2000E+26   45.69      0.4835      0.2000E+26   12.19     -0.1307E-02
   361.4      0.2968E-01  0.1837       361.0       548.2       85.98       2713.       5.800      0.2173      0.1030      0.6916E-01  0.1153E-01   0.000       0.000       0.000        94.980     26.96       20.22      0.2754      0.2000E+26   45.40      0.4758      0.2000E+26   12.16     -0.1261E-02
   361.6      0.2950E-01  0.1896       362.9       553.5       91.69       2714.       5.750      0.2239      0.1030      0.6802E-01  0.1410E-01   0.000       0.000       0.000        94.974     27.19       20.22      0.2826      0.2000E+26   45.13      0.4686      0.2000E+26   12.14     -0.1216E-02
   361.8      0.2932E-01  0.1954       364.8       558.9       97.39       2715.       5.701      0.2305      0.1030      0.6676E-01  0.1680E-01   0.000       0.000       0.000        94.969     27.42       20.22      0.2898      0.2000E+26   44.86      0.4619      0.2000E+26   12.10     -0.1171E-02
   362.0      0.2915E-01  0.2013       366.6       564.2       103.1       2716.       5.651      0.2371      0.1031      0.6540E-01  0.1959E-01   0.000       0.000       0.000        94.963     27.66       20.22      0.2970      0.2000E+26   44.60      0.4558      0.2000E+26   12.07     -0.1127E-02
   362.2      0.2898E-01  0.2071       368.3       568.8       109.5       2716.       5.608      0.2436      0.1034      0.6358E-01  0.2269E-01   0.000       0.000       0.000        94.954     27.89       20.22      0.3043      0.2000E+26   44.35      0.4501      0.2000E+26   12.04     -0.1085E-02
   362.4      0.2882E-01  0.2128       369.9       573.3       115.8       2717.       5.564      0.2502      0.1037      0.6154E-01  0.2594E-01   0.000       0.000       0.000        94.945     28.11       20.22      0.3116      0.2000E+26   44.10      0.4449      0.2000E+26   12.01     -0.1045E-02
   362.6      0.2867E-01  0.2186       371.5       577.9       122.2       2717.       5.520      0.2571      0.1045      0.5862E-01  0.2944E-01   0.000       0.000       0.000        94.936     28.34       20.22      0.3189      0.2000E+26   43.87      0.4403      0.2000E+26   12.01     -0.1006E-02
   362.8      0.2853E-01  0.2243       373.1       582.5       128.5       2718.       5.477      0.2640      0.1054      0.5546E-01  0.3301E-01   0.000       0.000       0.000        94.927     28.56       20.22      0.3263      0.2000E+26   43.65      0.4361      0.2000E+26   11.99     -0.9674E-03
   363.0      0.2840E-01  0.2299       374.8       587.1       134.9       2718.       5.433      0.2717      0.1066      0.5156E-01  0.3620E-01   0.000       0.000       0.000        94.918     28.78       20.22      0.3338      0.2000E+26   43.45      0.4325      0.2000E+26   11.96     -0.9284E-03
   363.2      0.2828E-01  0.2356       375.9       588.0       141.7       2718.       5.401      0.2796      0.1078      0.4760E-01  0.3935E-01   0.000       0.000       0.000        94.905     29.01       20.22      0.3413      0.2000E+26   43.27      0.4293      0.2000E+26   11.94     -0.9000E-03
   363.4      0.2818E-01  0.2412       377.1       588.8       148.5       2718.       5.369      0.2874      0.1090      0.4417E-01  0.4205E-01   0.000       0.000       0.000        94.892     29.22       20.22      0.3488      0.2000E+26   43.11      0.4267      0.2000E+26   11.92     -0.8728E-03
   363.6      0.2808E-01  0.2469       377.3       589.7       155.3       2718.       5.336      0.2952      0.1102      0.4078E-01  0.4480E-01   0.000       0.000       0.000        94.879     29.44       20.22      0.3564      0.2000E+26   42.97      0.4245      0.2000E+26   11.95     -0.8663E-03
   363.8      0.2800E-01  0.2525       377.6       590.6       162.1       2718.       5.304      0.3029      0.1109      0.3767E-01  0.4782E-01   0.000       0.000       0.000        94.867     29.66       20.22      0.3640      0.2000E+26   42.85      0.4228      0.2000E+26   11.95     -0.8598E-03
   364.0      0.2793E-01  0.2580       377.9       591.4       168.9       2718.       5.272      0.3103      0.1115      0.3468E-01  0.5114E-01   0.000       0.000       0.000        94.854     29.87       20.22      0.3717      0.2000E+26   42.74      0.4215      0.2000E+26   11.94     -0.8533E-03
   364.2      0.2787E-01  0.2636       378.2       599.3       176.0       2717.       5.253      0.3169      0.1116      0.3212E-01  0.5540E-01   0.000       0.000       0.000        94.837     30.08       20.22      0.3794      0.2000E+26   42.65      0.4208      0.2000E+26   11.94     -0.8447E-03
   364.4      0.2783E-01  0.2692       379.2       607.1       183.0       2717.       5.233      0.3232      0.1116      0.2979E-01  0.5978E-01   0.000       0.000       0.000        94.821     30.30       20.22      0.3872      0.2000E+26   42.57      0.4205      0.2000E+26   11.92     -0.8208E-03
   364.6      0.2780E-01  0.2747       380.4       614.9       190.1       2716.       5.214      0.3291      0.1114      0.2786E-01  0.6438E-01   0.000       0.000       0.000        94.804     30.50       20.22      0.3950      0.2000E+26   42.53      0.4206      0.2000E+26   11.95     -0.7909E-03
   364.8      0.2779E-01  0.2803       383.4       622.8       197.1       2715.       5.195      0.3351      0.1112      0.2606E-01  0.6890E-01   0.000       0.000       0.000        94.788     30.71       20.22      0.4029      0.2000E+26   42.51      0.4212      0.2000E+26   11.90     -0.7195E-03
   365.0      0.2779E-01  0.2859       386.3       630.6       204.1       2715.       5.176      0.3411      0.1110      0.2440E-01  0.7332E-01   0.000       0.000       0.000        94.772     30.92       20.22      0.4109      0.2000E+26   42.52      0.4222      0.2000E+26   11.85     -0.6480E-03
   365.2      0.2782E-01  0.2914       389.3       638.9       211.3       2714.       5.172      0.3470      0.1107      0.2274E-01  0.7791E-01   0.000       0.000       0.000        94.752     31.13       20.22      0.4189      0.2000E+26   42.56      0.4236      0.2000E+26   11.80     -0.5766E-03
   365.4      0.2786E-01  0.2970       392.2       647.1       218.4       2713.       5.168      0.3529      0.1104      0.2107E-01  0.8260E-01   0.000       0.000       0.000        94.731     31.33       20.22      0.4270      0.2000E+26   42.63      0.4255      0.2000E+26   11.76     -0.5049E-03
   365.6      0.2792E-01  0.3026       395.4       655.3       225.5       2712.       5.165      0.3585      0.1101      0.1947E-01  0.8769E-01   0.000       0.000       0.000        94.711     31.53       20.22      0.4351      0.2000E+26   42.71      0.4277      0.2000E+26   11.77     -0.4294E-03
   365.8      0.2799E-01  0.3082       398.5       663.6       232.6       2711.       5.161      0.3639      0.1098      0.1788E-01  0.9296E-01   0.000       0.000       0.000        94.691     31.73       20.22      0.4433      0.2000E+26   42.83      0.4303      0.2000E+26   11.72     -0.3538E-03
   366.0      0.2808E-01  0.3138       402.0       671.8       239.8       2710.       5.158      0.3688      0.1097      0.1639E-01  0.9866E-01   0.000       0.000       0.000        94.671     31.93       20.22      0.4516      0.2000E+26   42.97      0.4333      0.2000E+26   11.66     -0.2696E-03
   366.2      0.2819E-01  0.3194       405.5       672.4       246.9       2709.       5.169      0.3734      0.1097      0.1491E-01  0.1045       0.000       0.000       0.000        94.648     32.13       20.22      0.4600      0.2000E+26   43.13      0.4367      0.2000E+26   11.61     -0.1852E-03
   366.4      0.2832E-01  0.3251       408.9       672.9       253.9       2708.       5.181      0.3779      0.1098      0.1351E-01  0.1104       0.000       0.000       0.000        94.624     32.33       20.22      0.4684      0.2000E+26   43.32      0.4404      0.2000E+26   11.56     -0.1007E-03
   366.6      0.2846E-01  0.3308       412.4       673.4       261.0       2706.       5.192      0.3823      0.1099      0.1213E-01  0.1163       0.000       0.000       0.000        94.600     32.53       20.22      0.4769      0.2000E+26   43.54      0.4445      0.2000E+26   11.57     -0.1631E-04
   366.8      0.2861E-01  0.3365       413.1       673.9       268.1       2705.       5.204      0.3864      0.1101      0.1084E-01  0.1223       0.000       0.000       0.000        94.577     32.72       20.22      0.4854      0.2000E+26   43.78      0.4489      0.2000E+26   11.56       0.000    
   367.0      0.2878E-01  0.3423       412.7       674.5       275.2       2704.       5.216      0.3906      0.1102      0.9593E-02  0.1284       0.000       0.000       0.000        94.553     32.92       20.22      0.4941      0.2000E+26   44.04      0.4536      0.2000E+26   11.57     -0.9300E-05
   367.2      0.2896E-01  0.3481       410.0       665.1       282.1       2702.       5.240      0.3947      0.1098      0.8555E-02  0.1346       0.000       0.000       0.000        94.526     33.11       20.22      0.5028      0.2000E+26   44.31      0.4586      0.2000E+26   11.61     -0.7561E-04
   367.4      0.2915E-01  0.3539       405.4       655.8       289.1       2701.       5.264      0.3989      0.1094      0.7513E-02  0.1406       0.000       0.000       0.000        94.498     33.30       20.22      0.5116      0.2000E+26   44.60      0.4639      0.2000E+26   11.68     -0.1860E-03
   367.6      0.2936E-01  0.3598       400.9       646.4       296.1       2699.       5.288      0.4038      0.1088      0.6460E-02  0.1462       0.000       0.000       0.000        94.471     33.49       20.22      0.5204      0.2000E+26   44.91      0.4694      0.2000E+26   11.83     -0.2964E-03
   367.8      0.2957E-01  0.3657       396.3       637.1       303.0       2698.       5.311      0.4093      0.1079      0.5370E-02  0.1514       0.000       0.000       0.000        94.444     33.68       20.22      0.5293      0.2000E+26   45.25      0.4753      0.2000E+26   11.90     -0.4069E-03
   368.0      0.2980E-01  0.3716       392.4       627.7       310.0       2696.       5.335      0.4158      0.1068      0.4222E-02  0.1557       0.000       0.000       0.000        94.416     33.87       20.22      0.5382      0.2000E+26   45.59      0.4813      0.2000E+26   11.96     -0.5017E-03
   368.2      0.3004E-01  0.3776       392.0       629.7       316.8       2694.       5.369      0.4224      0.1056      0.3088E-02  0.1602       0.000       0.000       0.000        94.385     34.06       20.22      0.5472      0.2000E+26   45.96      0.4876      0.2000E+26   11.97     -0.5114E-03
   368.4      0.3028E-01  0.3837       391.6       631.8       323.6       2693.       5.403      0.4290      0.1043      0.1969E-02  0.1646       0.000       0.000       0.000        94.354     34.25       20.22      0.5562      0.2000E+26   46.33      0.4942      0.2000E+26   11.97     -0.5212E-03
   368.6      0.3053E-01  0.3898       392.5       633.8       330.3       2691.       5.436      0.4354      0.1030      0.1112E-02  0.1690       0.000       0.000       0.000        94.324     34.43       20.22      0.5653      0.2000E+26   46.71      0.5009      0.2000E+26   12.05     -0.4992E-03
   368.8      0.3079E-01  0.3960       393.5       635.8       337.1       2689.       5.470      0.4416      0.1017      0.4175E-03  0.1735       0.000       0.000       0.000        94.293     34.62       20.22      0.5744      0.2000E+26   47.10      0.5079      0.2000E+26   12.03     -0.4740E-03
   369.0      0.3105E-01  0.4022       394.3       637.9       343.9       2687.       5.503      0.4478      0.1005      0.1416E-03  0.1773       0.000       0.000       0.000        94.262     34.80       20.22      0.5836      0.2000E+26   47.50      0.5150      0.2000E+26   12.02     -0.4558E-03
   369.2      0.3132E-01  0.4084       394.9       627.1       350.5       2686.       5.542      0.4540      0.9944E-01  0.1879E-04  0.1810       0.000       0.000       0.000        94.227     34.98       20.22      0.5927      0.2000E+26   47.91      0.5223      0.2000E+26   12.01     -0.4418E-03
   369.4      0.3159E-01  0.4147       393.9       616.4       357.1       2684.       5.582      0.4603      0.9886E-01   0.000      0.1840       0.000       0.000       0.000        94.193     35.16       20.22      0.6019      0.2000E+26   48.33      0.5297      0.2000E+26   12.02     -0.4640E-03
   369.6      0.3186E-01  0.4211       390.0       605.7       363.7       2682.       5.621      0.4665      0.9836E-01   0.000      0.1868       0.000       0.000       0.000        94.158     35.34       20.22      0.6112      0.2000E+26   48.75      0.5373      0.2000E+26   12.18     -0.5586E-03
   369.8      0.3213E-01  0.4275       386.1       595.0       370.3       2680.       5.660      0.4728      0.9838E-01   0.000      0.1889       0.000       0.000       0.000        94.124     35.52       20.22      0.6204      0.2000E+26   49.16      0.5451      0.2000E+26   12.25     -0.6533E-03
   370.0      0.3240E-01  0.4340       382.2       584.2       376.9       2678.       5.699      0.4790      0.9843E-01   0.000      0.1910       0.000       0.000       0.000        94.089     35.70       20.22      0.6296      0.2000E+26   49.58      0.5529      0.2000E+26   12.31     -0.7479E-03
   370.2      0.3267E-01  0.4406       378.3       583.1       383.3       2676.       5.740      0.4850      0.9860E-01   0.000      0.1931       0.000       0.000       0.000        94.051     35.88       20.22      0.6389      0.2000E+26   49.99      0.5608      0.2000E+26   12.38     -0.8425E-03
   370.4      0.3294E-01  0.4471       376.0       582.1       389.6       2674.       5.780      0.4909      0.9870E-01   0.000      0.1954       0.000       0.000       0.000        94.013     36.06       20.22      0.6481      0.2000E+26   50.39      0.5689      0.2000E+26   12.42     -0.8984E-03
   370.6      0.3320E-01  0.4538       374.6       581.0       396.0       2672.       5.821      0.4966      0.9857E-01   0.000      0.1981       0.000       0.000       0.000        93.975     36.24       20.22      0.6574      0.2000E+26   50.79      0.5770      0.2000E+26   12.55     -0.9332E-03
   370.8      0.3345E-01  0.4605       373.7       579.9       402.4       2670.       5.861      0.5022      0.9830E-01   0.000      0.2010       0.000       0.000       0.000        93.937     36.41       20.22      0.6667      0.2000E+26   51.18      0.5852      0.2000E+26   12.57     -0.9539E-03
   371.0      0.3370E-01  0.4672       374.5       578.8       408.8       2668.       5.901      0.5078      0.9769E-01   0.000      0.2043       0.000       0.000       0.000        93.899     36.59       20.22      0.6759      0.2000E+26   51.57      0.5934      0.2000E+26   12.55     -0.9350E-03
   371.2      0.3395E-01  0.4740       375.3       578.5       415.0       2666.       5.940      0.5136      0.9704E-01   0.000      0.2074       0.000       0.000       0.000        93.857     36.76       20.22      0.6852      0.2000E+26   51.94      0.6017      0.2000E+26   12.54     -0.9161E-03
   371.4      0.3418E-01  0.4808       376.0       578.2       421.1       2664.       5.978      0.5195      0.9633E-01   0.000      0.2104       0.000       0.000       0.000        93.816     36.93       20.22      0.6945      0.2000E+26   52.30      0.6100      0.2000E+26   12.53     -0.8983E-03
   371.6      0.3441E-01  0.4877       376.7       577.9       427.3       2662.       6.016      0.5262      0.9581E-01   0.000      0.2126       0.000       0.000       0.000        93.774     37.10       20.22      0.7037      0.2000E+26   52.65      0.6184      0.2000E+26   12.63     -0.8806E-03
   371.8      0.3464E-01  0.4947       376.8       577.6       433.4       2660.       6.055      0.5335      0.9546E-01   0.000      0.2139       0.000       0.000       0.000        93.733     37.28       20.22      0.7129      0.2000E+26   53.00      0.6268      0.2000E+26   12.63     -0.8780E-03
   372.0      0.3486E-01  0.5016       376.1       577.3       439.6       2658.       6.093      0.5411      0.9546E-01   0.000      0.2145       0.000       0.000       0.000        93.691     37.45       20.22      0.7221      0.2000E+26   53.34      0.6351      0.2000E+26   12.64     -0.8969E-03
   372.2      0.3508E-01  0.5086       375.3       570.3       445.5       2655.       6.128      0.5490      0.9567E-01   0.000      0.2147       0.000       0.000       0.000        93.646     37.62       20.22      0.7313      0.2000E+26   53.67      0.6435      0.2000E+26   12.65     -0.9158E-03
   372.4      0.3529E-01  0.5157       374.5       563.3       451.4       2653.       6.163      0.5571      0.9607E-01   0.000      0.2145       0.000       0.000       0.000        93.601     37.79       20.22      0.7404      0.2000E+26   53.99      0.6518      0.2000E+26   12.67     -0.9347E-03
   372.6      0.3549E-01  0.5228       373.7       556.3       457.3       2651.       6.197      0.5652      0.9654E-01   0.000      0.2141       0.000       0.000       0.000        93.556     37.95       20.22      0.7495      0.2000E+26   54.30      0.6602      0.2000E+26   12.80     -0.9536E-03
   372.8      0.3568E-01  0.5299       371.4       549.3       463.3       2649.       6.232      0.5737      0.9679E-01   0.000      0.2134       0.000       0.000       0.000        93.510     38.12       20.22      0.7586      0.2000E+26   54.58      0.6685      0.2000E+26   12.84     -0.1009E-02
   373.0      0.3585E-01  0.5371       367.3       542.3       469.2       2647.       6.267      0.5823      0.9700E-01   0.000      0.2127       0.000       0.000       0.000        93.465     38.29       20.22      0.7676      0.2000E+26   54.85      0.6767      0.2000E+26   12.92     -0.1108E-02
   373.2      0.3601E-01  0.5443       363.2       524.1       474.8       2644.       6.294      0.5909      0.9668E-01   0.000      0.2122       0.000       0.000       0.000        93.417     38.45       20.22      0.7766      0.2000E+26   55.10      0.6849      0.2000E+26   13.00     -0.1208E-02
   373.4      0.3616E-01  0.5515       357.1       505.9       480.5       2642.       6.321      0.5993      0.9628E-01   0.000      0.2120       0.000       0.000       0.000        93.368     38.62       20.22      0.7856      0.2000E+26   55.33      0.6931      0.2000E+26   13.11     -0.1356E-02
   373.6      0.3629E-01  0.5588       350.8       487.7       486.1       2640.       6.349      0.6052      0.9528E-01   0.000      0.2145       0.000       0.000       0.000        93.319     38.78       20.22      0.7946      0.2000E+26   55.52      0.7012      0.2000E+26   13.37     -0.1507E-02
   373.8      0.3641E-01  0.5661       344.0       469.5       491.8       2638.       6.376      0.6109      0.9421E-01   0.000      0.2173       0.000       0.000       0.000        93.271     38.95       20.22      0.8035      0.2000E+26   55.70      0.7092      0.2000E+26   13.51     -0.1672E-02
   374.0      0.3650E-01  0.5734       336.3       451.4       497.4       2635.       6.403      0.6158      0.9292E-01   0.000      0.2208       0.000       0.000       0.000        93.222     39.11       20.22      0.8124      0.2000E+26   55.85      0.7171      0.2000E+26   13.67     -0.1859E-02
   374.2      0.3658E-01  0.5807       328.6       425.6       502.8       2633.       6.421      0.6204      0.9156E-01   0.000      0.2245       0.000       0.000       0.000        93.170     39.27       20.22      0.8213      0.2000E+26   55.97      0.7250      0.2000E+26   13.84     -0.2046E-02
   374.4      0.3665E-01  0.5880       317.4       399.8       508.2       2631.       6.439      0.6247      0.9009E-01   0.000      0.2286       0.000       0.000       0.000        93.118     39.44       20.22      0.8303      0.2000E+26   56.08      0.7328      0.2000E+26   14.10     -0.2317E-02
   374.6      0.3671E-01  0.5954       305.3       374.0       513.5       2628.       6.456      0.6288      0.8845E-01   0.000      0.2326       0.000       0.000       0.000        93.066     39.60       20.22      0.8391      0.2000E+26   56.17      0.7404      0.2000E+26   14.54     -0.2611E-02
   374.8      0.3674E-01  0.6027       293.1       348.2       518.9       2626.       6.474      0.6329      0.8663E-01   0.000      0.2365       0.000       0.000       0.000        93.014     39.76       20.22      0.8480      0.2000E+26   56.22      0.7480      0.2000E+26   14.86     -0.2904E-02
   375.0      0.3676E-01  0.6101       281.0       322.4       524.3       2624.       6.491      0.6369      0.8474E-01   0.000      0.2404       0.000       0.000       0.000        92.961     39.92       20.22      0.8569      0.2000E+26   56.25      0.7555      0.2000E+26   15.19     -0.3197E-02
   375.2      0.3677E-01  0.6174       268.9       296.3       529.3       2621.       6.498      0.6409      0.8279E-01   0.000      0.2442       0.000       0.000       0.000        92.906     40.08       20.22      0.8657      0.2000E+26   56.26      0.7629      0.2000E+26   15.56     -0.3491E-02
   375.4      0.3676E-01  0.6248       252.5       270.2       534.4       2619.       6.505      0.6457      0.8062E-01   0.000      0.2467       0.000       0.000       0.000        92.850     40.24       20.22      0.8745      0.2000E+26   56.24      0.7701      0.2000E+26   16.09     -0.3888E-02
   375.6      0.3673E-01  0.6321       232.6       244.1       539.4       2616.       6.512      0.6508      0.7834E-01   0.000      0.2486       0.000       0.000       0.000        92.795     40.39       20.22      0.8833      0.2000E+26   56.19      0.7773      0.2000E+26   16.98     -0.4369E-02
   375.8      0.3668E-01  0.6395       212.7       218.0       544.5       2614.       6.519      0.6565      0.7589E-01   0.000      0.2496       0.000       0.000       0.000        92.739     40.55       20.22      0.8920      0.2000E+26   56.12      0.7843      0.2000E+26   17.80     -0.4851E-02
   376.0      0.3662E-01  0.6468       192.4       191.9       549.6       2612.       6.526      0.6623      0.7341E-01   0.000      0.2504       0.000       0.000       0.000        92.684     40.71       20.22      0.9007      0.2000E+26   56.02      0.7912      0.2000E+26   18.78     -0.5342E-02
   376.2      0.3653E-01  0.6541       172.1       178.2       554.3       2609.       6.521      0.6686      0.7067E-01   0.000      0.2503       0.000       0.000       0.000        92.625     40.86       20.22      0.9093      0.2000E+26   55.89      0.7979      0.2000E+26   19.93     -0.5834E-02
   376.4      0.3643E-01  0.6614       151.4       164.5       559.0       2607.       6.517      0.6749      0.6789E-01   0.000      0.2500       0.000       0.000       0.000        92.566     41.02       20.22      0.9179      0.2000E+26   55.74      0.8046      0.2000E+26   21.34     -0.6336E-02
   376.6      0.3631E-01  0.6686       129.1       150.8       563.7       2604.       6.512      0.6810      0.6450E-01   0.000      0.2494       0.000       0.000       0.000        92.507     41.18       20.22      0.9264      0.2000E+26   55.55      0.8111      0.2000E+26   23.47     -0.6874E-02
   376.8      0.3617E-01  0.6759       106.9       137.1       568.4       2602.       6.507      0.6868      0.6107E-01   0.000      0.2490       0.000       0.000       0.000        92.448     41.33       20.22      0.9348      0.2000E+26   55.34      0.8175      0.2000E+26   25.95     -0.7413E-02
   377.0      0.3600E-01  0.6831       84.22       123.3       573.1       2599.       6.502      0.6913      0.5740E-01   0.000      0.2491       0.000       0.000       0.000        92.389     41.48       20.22      0.9432      0.2000E+26   55.09      0.8237      0.2000E+26   29.45     -0.7961E-02
   377.2      0.3582E-01  0.6902       61.15       122.6       577.4       2596.       6.486      0.6956      0.5371E-01   0.000      0.2494       0.000       0.000       0.000        92.326     41.64       20.22      0.9515      0.2000E+26   54.81      0.8298      0.2000E+26   34.92     -0.8520E-02
   377.4      0.3563E-01  0.6974       38.07       121.9       581.8       2594.       6.469      0.6995      0.4995E-01   0.000      0.2498       0.000       0.000       0.000        92.264     41.79       20.22      0.9598      0.2000E+26   54.51      0.8358      0.2000E+26   44.94     -0.9078E-02
   377.6      0.3542E-01  0.7044       0.000       121.2       586.1       2591.       6.453      0.7034      0.4627E-01   0.000      0.2501       0.000       0.000       0.000        92.201     41.94       20.22      0.2000E+26  0.2000E+26   54.20      0.8416      0.2000E+26  0.2000E+26 -0.1000E-01
   377.8      0.3520E-01  0.7115       0.000       120.5       590.4       2588.       6.437      0.7072      0.4272E-01   0.000      0.2500       0.000       0.000       0.000        92.139     42.09       20.22      0.2000E+26  0.2000E+26   53.86      0.8473      0.2000E+26  0.2000E+26 -0.1000E-01
   378.0      0.3497E-01  0.7185       0.000       119.8       594.8       2586.       6.420      0.7110      0.3921E-01   0.000      0.2497       0.000       0.000       0.000        92.076     42.24       20.22      0.2000E+26  0.2000E+26   53.50      0.8529      0.2000E+26  0.2000E+26 -0.1000E-01
   378.2      0.3473E-01  0.7254       0.000       118.4       598.7       2583.       6.394      0.7148      0.3574E-01   0.000      0.2494       0.000       0.000       0.000        92.011     42.40       20.22      0.2000E+26  0.2000E+26   53.13      0.8583      0.2000E+26  0.2000E+26 -0.1000E-01
   378.4      0.3448E-01  0.7323       0.000       117.1       602.6       2580.       6.369      0.7190      0.3298E-01   0.000      0.2480       0.000       0.000       0.000        91.945     42.55       20.22      0.2000E+26  0.2000E+26   52.75      0.8636      0.2000E+26  0.2000E+26 -0.1000E-01
   378.6      0.3422E-01  0.7392       0.000       115.8       606.5       2577.       6.343      0.7234      0.3069E-01   0.000      0.2459       0.000       0.000       0.000        91.879     42.69       20.22      0.2000E+26  0.2000E+26   52.35      0.8688      0.2000E+26  0.2000E+26 -0.1000E-01
   378.8      0.3395E-01  0.7460       0.000       114.5       610.5       2575.       6.317      0.7281      0.2879E-01   0.000      0.2432       0.000       0.000       0.000        91.813     42.84       20.22      0.2000E+26  0.2000E+26   51.95      0.8738      0.2000E+26  0.2000E+26 -0.1000E-01
   379.0      0.3368E-01  0.7527       0.000       113.2       614.4       2572.       6.292      0.7328      0.2703E-01   0.000      0.2402       0.000       0.000       0.000        91.748     42.99       20.22      0.2000E+26  0.2000E+26   51.52      0.8787      0.2000E+26  0.2000E+26 -0.1000E-01
   379.2      0.3339E-01  0.7594       0.000       112.5       617.9       2569.       6.259      0.7387      0.2639E-01   0.000      0.2349       0.000       0.000       0.000        91.678     43.14       20.22      0.2000E+26  0.2000E+26   51.09      0.8834      0.2000E+26  0.2000E+26 -0.1000E-01
   379.4      0.3310E-01  0.7660       0.000       111.7       621.4       2566.       6.226      0.7449      0.2597E-01   0.000      0.2292       0.000       0.000       0.000        91.609     43.29       20.22      0.2000E+26  0.2000E+26   50.65      0.8880      0.2000E+26  0.2000E+26 -0.1000E-01
   379.6      0.3281E-01  0.7725       0.000       111.0       625.0       2563.       6.193      0.7510      0.2559E-01   0.000      0.2234       0.000       0.000       0.000        91.540     43.44       20.22      0.2000E+26  0.2000E+26   50.19      0.8925      0.2000E+26  0.2000E+26 -0.1000E-01
   379.8      0.3250E-01  0.7790       0.000       110.2       628.5       2560.       6.160      0.7572      0.2522E-01   0.000      0.2176       0.000       0.000       0.000        91.471     43.58       20.22      0.2000E+26  0.2000E+26   49.73      0.8968      0.2000E+26  0.2000E+26 -0.1000E-01
   380.0      0.3219E-01  0.7855       0.000       109.5       632.0       2557.       6.127      0.7631      0.2485E-01   0.000      0.2120       0.000       0.000       0.000        91.402     43.73       20.22      0.2000E+26  0.2000E+26   49.25      0.9010      0.2000E+26  0.2000E+26 -0.1000E-01
   380.2      0.3187E-01  0.7919       0.000       108.7       635.1       2554.       6.088      0.7690      0.2448E-01   0.000      0.2066       0.000       0.000       0.000        91.330     43.87       20.22      0.2000E+26  0.2000E+26   48.76      0.9051      0.2000E+26  0.2000E+26 -0.1000E-01
   380.4      0.3154E-01  0.7982       0.000       108.0       638.2       2551.       6.048      0.7742      0.2411E-01   0.000      0.2017       0.000       0.000       0.000        91.257     44.02       20.22      0.2000E+26  0.2000E+26   48.25      0.9090      0.2000E+26  0.2000E+26 -0.1000E-01
   380.6      0.3120E-01  0.8044       0.000       107.2       641.4       2548.       6.009      0.7794      0.2374E-01   0.000      0.1969      0.8356E-05   0.000       0.000        91.185     44.16       20.22      0.2000E+26  0.2000E+26   47.74      0.9129      0.2000E+26  0.2000E+26 -0.1000E-01
   380.8      0.3086E-01  0.8106       0.000       106.5       644.5       2545.       5.970      0.7845      0.2337E-01   0.000      0.1921      0.3754E-04   0.000       0.000        91.112     44.31       20.22      0.2000E+26  0.2000E+26   47.22      0.9166      0.2000E+26  0.2000E+26 -0.1000E-01
   381.0      0.3051E-01  0.8167       0.000       105.7       647.6       2542.       5.930      0.7897      0.2300E-01   0.000      0.1872      0.7505E-04   0.000       0.000        91.040     44.45       20.22      0.2000E+26  0.2000E+26   46.69      0.9202      0.2000E+26  0.2000E+26 -0.1000E-01
   381.2      0.3016E-01  0.8227       0.000       105.0       650.3       2539.       5.886      0.7948      0.2263E-01   0.000      0.1824      0.1250E-03   0.000       0.000        90.964     44.59       20.22      0.2000E+26  0.2000E+26   46.15      0.9236      0.2000E+26  0.2000E+26 -0.1000E-01
   381.4      0.2980E-01  0.8287       0.000       104.2       653.0       2535.       5.841      0.7992      0.2227E-01   0.000      0.1783      0.2014E-03   0.000       0.000        90.888     44.74       20.22      0.2000E+26  0.2000E+26   45.60      0.9270      0.2000E+26  0.2000E+26 -0.1000E-01
   381.6      0.2944E-01  0.8346       0.000       103.5       655.7       2532.       5.797      0.8030      0.2189E-01   0.000      0.1748      0.3025E-03   0.000       0.000        90.813     44.88       20.22      0.2000E+26  0.2000E+26   45.04      0.9302      0.2000E+26  0.2000E+26 -0.1000E-01
   381.8      0.2907E-01  0.8404       0.000       102.7       658.5       2529.       5.752      0.8066      0.2152E-01   0.000      0.1715      0.4068E-03   0.000       0.000        90.737     45.02       20.22      0.2000E+26  0.2000E+26   44.47      0.9333      0.2000E+26  0.2000E+26 -0.1000E-01
   382.0      0.2869E-01  0.8461       0.000       102.0       661.2       2526.       5.708      0.8102      0.2115E-01   0.000      0.1681      0.5129E-03   0.000       0.000        90.661     45.16       20.22      0.2000E+26  0.2000E+26   43.90      0.9363      0.2000E+26  0.2000E+26 -0.1000E-01
   382.2      0.2832E-01  0.8518       0.000       101.2       663.5       2523.       5.659      0.8134      0.2078E-01   0.000      0.1651      0.6349E-03   0.000       0.000        90.582     45.30       20.22      0.2000E+26  0.2000E+26   43.32      0.9392      0.2000E+26  0.2000E+26 -0.1000E-01
   382.4      0.2793E-01  0.8574       0.000       100.5       665.9       2519.       5.610      0.8165      0.2041E-01   0.000      0.1623      0.7623E-03   0.000       0.000        90.504     45.44       20.22      0.2000E+26  0.2000E+26   42.74      0.9420      0.2000E+26  0.2000E+26 -0.1000E-01
   382.6      0.2755E-01  0.8629       0.000       99.70       668.2       2516.       5.561      0.8193      0.2004E-01   0.000      0.1597      0.9023E-03   0.000       0.000        90.425     45.58       20.22      0.2000E+26  0.2000E+26   42.15      0.9447      0.2000E+26  0.2000E+26 -0.1000E-01
   382.8      0.2716E-01  0.8683       0.000       98.95       670.6       2513.       5.512      0.8221      0.1967E-01   0.000      0.1572      0.1044E-02   0.000       0.000        90.346     45.72       20.22      0.2000E+26  0.2000E+26   41.56      0.9472      0.2000E+26  0.2000E+26 -0.1000E-01
   383.0      0.2677E-01  0.8737       0.000       98.19       672.9       2509.       5.463      0.8249      0.1930E-01   0.000      0.1546      0.1186E-02   0.000       0.000        90.267     45.86       20.22      0.2000E+26  0.2000E+26   40.96      0.9497      0.2000E+26  0.2000E+26 -0.1000E-01
   383.2      0.2638E-01  0.8789       0.000       97.44       674.9       2506.       5.411      0.8276      0.1893E-01   0.000      0.1521      0.1338E-02   0.000       0.000        90.185     46.00       20.22      0.2000E+26  0.2000E+26   40.35      0.9521      0.2000E+26  0.2000E+26 -0.1000E-01
   383.4      0.2598E-01  0.8841       0.000       96.69       676.9       2502.       5.358      0.8299      0.1856E-01   0.000      0.1500      0.1587E-02   0.000       0.000        90.103     46.14       20.22      0.2000E+26  0.2000E+26   39.75      0.9544      0.2000E+26  0.2000E+26 -0.1000E-01
   383.6      0.2558E-01  0.8892       0.000       95.95       678.9       2499.       5.306      0.8321      0.1818E-01   0.000      0.1479      0.1844E-02   0.000       0.000        90.020     46.28       20.22      0.2000E+26  0.2000E+26   39.14      0.9566      0.2000E+26  0.2000E+26 -0.1000E-01
   383.8      0.2518E-01  0.8943       0.000       95.20       680.9       2496.       5.253      0.8342      0.1781E-01   0.000      0.1459      0.2133E-02   0.000       0.000        89.938     46.41       20.22      0.2000E+26  0.2000E+26   38.52      0.9587      0.2000E+26  0.2000E+26 -0.1000E-01
   384.0      0.2478E-01  0.8992       0.000       94.45       682.9       2492.       5.201      0.8362      0.1744E-01   0.000      0.1439      0.2422E-02   0.000       0.000        89.856     46.55       20.22      0.2000E+26  0.2000E+26   37.91      0.9608      0.2000E+26  0.2000E+26 -0.1000E-01
   384.2      0.2438E-01  0.9041       0.000       93.71       684.6       2489.       5.150      0.8383      0.1707E-01   0.000      0.1419      0.2711E-02   0.000       0.000        89.771     46.69       20.22      0.2000E+26  0.2000E+26   37.29      0.9627      0.2000E+26  0.2000E+26 -0.1000E-01
   384.4      0.2397E-01  0.9089       0.000       92.97       686.3       2485.       5.098      0.8403      0.1670E-01   0.000      0.1400      0.3012E-02   0.000       0.000        89.686     46.82       20.22      0.2000E+26  0.2000E+26   36.68      0.9646      0.2000E+26  0.2000E+26 -0.1000E-01
   384.6      0.2356E-01  0.9136       0.000       92.22       688.0       2482.       5.047      0.8421      0.1633E-01   0.000      0.1383      0.3329E-02   0.000       0.000        89.600     46.96       20.22      0.2000E+26  0.2000E+26   36.05      0.9664      0.2000E+26  0.2000E+26 -0.1000E-01
   384.8      0.2316E-01  0.9183       0.000       91.48       689.6       2478.       4.996      0.8435      0.1597E-01   0.000      0.1369      0.3683E-02   0.000       0.000        89.515     47.09       20.22      0.2000E+26  0.2000E+26   35.43      0.9681      0.2000E+26  0.2000E+26 -0.1000E-01
   385.0      0.2275E-01  0.9228       0.000       90.74       691.3       2475.       4.944      0.8446      0.1562E-01   0.000      0.1357      0.4066E-02   0.000       0.000        89.430     47.23       20.22      0.2000E+26  0.2000E+26   34.81      0.9697      0.2000E+26  0.2000E+26 -0.1000E-01
   385.2      0.2235E-01  0.9273       0.000       90.01       692.7       2471.       4.892      0.8457      0.1527E-01   0.000      0.1346      0.4450E-02   0.000       0.000        89.341     47.36       20.22      0.2000E+26  0.2000E+26   34.19      0.9713      0.2000E+26  0.2000E+26 -0.1000E-01
   385.4      0.2194E-01  0.9317       0.000       89.28       694.1       2467.       4.841      0.8468      0.1492E-01   0.000      0.1335      0.4833E-02   0.000       0.000        89.253     47.50       20.22      0.2000E+26  0.2000E+26   33.57      0.9728      0.2000E+26  0.2000E+26 -0.1000E-01
   385.6      0.2153E-01  0.9360       0.000       88.56       695.5       2464.       4.789      0.8479      0.1457E-01   0.000      0.1323      0.5217E-02   0.000       0.000        89.165     47.63       20.22      0.2000E+26  0.2000E+26   32.94      0.9742      0.2000E+26  0.2000E+26 -0.1000E-01
   385.8      0.2112E-01  0.9402       0.000       87.83       696.9       2460.       4.737      0.8490      0.1422E-01   0.000      0.1312      0.5600E-02   0.000       0.000        89.076     47.76       20.22      0.2000E+26  0.2000E+26   32.32      0.9755      0.2000E+26  0.2000E+26 -0.1000E-01
   386.0      0.2072E-01  0.9443       0.000       87.10       698.3       2456.       4.685      0.8501      0.1387E-01   0.000      0.1301      0.5984E-02   0.000       0.000        88.988     47.90       20.22      0.2000E+26  0.2000E+26   31.70      0.9768      0.2000E+26  0.2000E+26 -0.1000E-01
   386.2      0.2031E-01  0.9484       0.000       86.38       699.5       2453.       4.632      0.8512      0.1352E-01   0.000      0.1289      0.6367E-02   0.000       0.000        88.896     48.03       20.22      0.2000E+26  0.2000E+26   31.08      0.9781      0.2000E+26  0.2000E+26 -0.1000E-01
   386.4      0.1991E-01  0.9524       0.000       85.67       700.6       2449.       4.580      0.8522      0.1317E-01   0.000      0.1278      0.6812E-02   0.000       0.000        88.805     48.17       20.22      0.2000E+26  0.2000E+26   30.46      0.9793      0.2000E+26  0.2000E+26 -0.1000E-01
   386.6      0.1950E-01  0.9563       0.000       84.95       701.8       2445.       4.527      0.8532      0.1282E-01   0.000      0.1267      0.7302E-02   0.000       0.000        88.713     48.30       20.22      0.2000E+26  0.2000E+26   29.84      0.9804      0.2000E+26  0.2000E+26 -0.1000E-01
   386.8      0.1910E-01  0.9601       0.000       84.24       702.9       2441.       4.474      0.8536      0.1247E-01   0.000      0.1258      0.8124E-02   0.000       0.000        88.622     48.43       20.22      0.2000E+26  0.2000E+26   29.22      0.9815      0.2000E+26  0.2000E+26 -0.1000E-01
   387.0      0.1870E-01  0.9638       0.000       83.52       704.1       2437.       4.421      0.8540      0.1212E-01   0.000      0.1249      0.8946E-02   0.000       0.000        88.531     48.56       20.22      0.2000E+26  0.2000E+26   28.61      0.9945      0.2000E+26  0.2000E+26 -0.1000E-01
   387.2      0.1830E-01  0.9675       0.000       82.80       705.0       2433.       4.318      0.8544      0.1177E-01   0.000      0.1240      0.9768E-02   0.000       0.000        88.436     48.69       20.22      0.2000E+26  0.2000E+26   28.00      0.9835      0.2000E+26  0.2000E+26 -0.1000E-01
   387.4      0.1647E-01  0.9708       0.000       82.07       705.9       2429.       4.215      0.2000E+26  0.2000E+26  0.2000E+26  0.2000E+26  0.2000E+26  0.2000E+26  0.2000E+26    88.436    0.2000E+26  0.2000E+26  0.2000E+26  0.2000E+26   25.20      0.9844      0.2000E+26  0.2000E+26 -0.1000E-01
   387.6      0.1482E-01  0.9738       0.000       81.35       706.8       2425.       4.112      0.2000E+26  0.2000E+26  0.2000E+26  0.2000E+26  0.2000E+26  0.2000E+26  0.2000E+26    88.436    0.2000E+26  0.2000E+26  0.2000E+26  0.2000E+26   22.68      0.9853      0.2000E+26  0.2000E+26 -0.1000E-01
   387.8      0.1334E-01  0.9764       0.000       80.62       707.7       2421.       4.009      0.2000E+26  0.2000E+26  0.2000E+26  0.2000E+26  0.2000E+26  0.2000E+26  0.2000E+26    88.436    0.2000E+26  0.2000E+26  0.2000E+26  0.2000E+26   20.42      0.9861      0.2000E+26  0.2000E+26 -0.1000E-01
   388.0      0.1201E-01  0.9788       0.000       79.90       708.6       2417.       3.905      0.2000E+26  0.2000E+26  0.2000E+26  0.2000E+26  0.2000E+26  0.2000E+26  0.2000E+26    88.436    0.2000E+26  0.2000E+26  0.2000E+26  0.2000E+26   18.38      0.9869      0.2000E+26  0.2000E+26 -0.1000E-01
   388.2      0.1082E-01  0.9810       0.000       79.15       709.2       2412.       3.785      0.2000E+26  0.2000E+26  0.2000E+26  0.2000E+26  0.2000E+26  0.2000E+26  0.2000E+26    88.436    0.2000E+26  0.2000E+26  0.2000E+26  0.2000E+26   16.55      0.9877      0.2000E+26  0.2000E+26 -0.1000E-01
   388.4      0.9743E-02  0.9829       0.000       78.41       709.8       2407.       3.664      0.2000E+26  0.2000E+26  0.2000E+26  0.2000E+26  0.2000E+26  0.2000E+26  0.2000E+26    88.436    0.2000E+26  0.2000E+26  0.2000E+26  0.2000E+26   14.91      0.9884      0.2000E+26  0.2000E+26 -0.1000E-01
   388.6      0.8771E-02  0.9847       0.000       77.66       710.5       2403.       3.544      0.2000E+26  0.2000E+26  0.2000E+26  0.2000E+26  0.2000E+26  0.2000E+26  0.2000E+26    88.436    0.2000E+26  0.2000E+26  0.2000E+26  0.2000E+26   13.42      0.9891      0.2000E+26  0.2000E+26 -0.1000E-01
   388.8      0.7899E-02  0.9863       0.000       76.92       711.1       2398.       3.423      0.2000E+26  0.2000E+26  0.2000E+26  0.2000E+26  0.2000E+26  0.2000E+26  0.2000E+26    88.436    0.2000E+26  0.2000E+26  0.2000E+26  0.2000E+26   12.09      0.9897      0.2000E+26  0.2000E+26 -0.1000E-01
   389.0      0.7114E-02  0.9877       0.000       76.17       711.8       2393.       3.303      0.2000E+26  0.2000E+26  0.2000E+26  0.2000E+26  0.2000E+26  0.2000E+26  0.2000E+26    88.436    0.2000E+26  0.2000E+26  0.2000E+26  0.2000E+26   10.88      0.9903      0.2000E+26  0.2000E+26 -0.1000E-01
   389.2      0.6406E-02  0.9890       0.000       75.43       712.3       2388.       3.189      0.2000E+26  0.2000E+26  0.2000E+26  0.2000E+26  0.2000E+26  0.2000E+26  0.2000E+26    88.436    0.2000E+26  0.2000E+26  0.2000E+26  0.2000E+26   9.802      0.9909      0.2000E+26  0.2000E+26 -0.1000E-01
   389.4      0.5769E-02  0.9901       0.000       74.70       712.7       2383.       3.075      0.2000E+26  0.2000E+26  0.2000E+26  0.2000E+26  0.2000E+26  0.2000E+26  0.2000E+26    88.436    0.2000E+26  0.2000E+26  0.2000E+26  0.2000E+26   8.826      0.9914      0.2000E+26  0.2000E+26 -0.1000E-01
   389.6      0.5192E-02  0.9912       0.000       73.96       713.2       2378.       2.961      0.2000E+26  0.2000E+26  0.2000E+26  0.2000E+26  0.2000E+26  0.2000E+26  0.2000E+26    88.436    0.2000E+26  0.2000E+26  0.2000E+26  0.2000E+26   7.944      0.9919      0.2000E+26  0.2000E+26 -0.1000E-01
   389.8      0.4675E-02  0.9921       0.000       73.22       713.6       2373.       2.847      0.2000E+26  0.2000E+26  0.2000E+26  0.2000E+26  0.2000E+26  0.2000E+26  0.2000E+26    88.436    0.2000E+26  0.2000E+26  0.2000E+26  0.2000E+26   7.153      0.9924      0.2000E+26  0.2000E+26 -0.1000E-01
   390.0      0.4209E-02  0.9929       0.000       72.48       714.1       2368.       2.734      0.2000E+26  0.2000E+26  0.2000E+26  0.2000E+26  0.2000E+26  0.2000E+26  0.2000E+26    88.436    0.2000E+26  0.2000E+26  0.2000E+26  0.2000E+26   6.439      0.9929      0.2000E+26  0.2000E+26 -0.1000E-01
   390.2      0.3789E-02  0.9937       0.000       71.74       714.4       2363.       2.612      0.2000E+26  0.2000E+26  0.2000E+26  0.2000E+26  0.2000E+26  0.2000E+26  0.2000E+26    88.436    0.2000E+26  0.2000E+26  0.2000E+26  0.2000E+26   5.797      0.9933      0.2000E+26  0.2000E+26 -0.1000E-01
   390.4      0.3410E-02  0.9944       0.000       71.00       714.7       2358.       2.490      0.2000E+26  0.2000E+26  0.2000E+26  0.2000E+26  0.2000E+26  0.2000E+26  0.2000E+26    88.436    0.2000E+26  0.2000E+26  0.2000E+26  0.2000E+26   5.218      0.9937      0.2000E+26  0.2000E+26 -0.1000E-01
   390.6      0.3068E-02  0.9950       0.000       70.26       715.0       2352.       2.368      0.2000E+26  0.2000E+26  0.2000E+26  0.2000E+26  0.2000E+26  0.2000E+26  0.2000E+26    88.436    0.2000E+26  0.2000E+26  0.2000E+26  0.2000E+26   4.694      0.9941      0.2000E+26  0.2000E+26 -0.1000E-01
   390.8       0.000      0.9950       0.000       69.51       715.3       2347.       2.246      0.2000E+26  0.2000E+26  0.2000E+26  0.2000E+26  0.2000E+26  0.2000E+26  0.2000E+26    88.436    0.2000E+26  0.2000E+26  0.2000E+26  0.2000E+26   0.000      0.9945      0.2000E+26  0.2000E+26 -0.1000E-01
 
