 Legend
 2020-12-24 19-15-21 "4L9.1/9.5" ||| Режим: #1 : n=4000 об/мин; ^^^режим, n=4000, уовт=15, степень сжатия=18.6^^^
 Файл : 4_valves.tpl
 
.DSL4N1   Rus   PistMove   Step=0.20   Stroke=   95.00    
   ПАРАМЕТРЫ ВПРЫСКА, СМЕСЕОБРАЗОВАНИЯ, ТЕПЛОВЫДЕЛЕНИЯ И САЖЕОБРАЗОВАНИЯ 
 Comment
 Fi          Угол поворота коленчатого вала, [град.]                     
 dx/dFi      Скорость тепловыделения [1/град.]                           
 x           Доля выделившегося тепла                                    
 Uo          Скорость истечения топлива, [м/c]                           
 Pвпр        Давление перед соплами распылителя, [бар]                   
 NOx         Концентрация оксидов азота, [ppm]                           
 T_burn      Температура в зоне сгорания,[K]                             
 Soot        Концентрация сажевых частиц в цилиндре, [г/м3]              
 S_обол      Доля топлива в оболочке струи и пристеночного потока        
 S_ядр.C     Доля топлива в ядре свободной струи                         
 S_фронт     Доля топлива во фронте свободной струи                      
 S_ядр.W     Доля топлива в ядре пристеночного потока                    
 S_яд.Ws     Доля топлива в зонах пересечени пристеночных потоков        
 S_крыш      Доля топлива осевшего на поверхности крышки цилиндра        
 S_цил       Доля топлива осевшего на поверхности зеркала цилиндра       
 P_pist      Позиция поршня относительно НМТ, [мм]                       
 Spray_tip   Длина свободной струи без учета вихря, мм                   
 Spray_ang   Угол раскрытия внешнего контура струи, град.                
 Evap_zon    Доля испарившегося топлива в зонной модели                  
 Evap_1p     Доля испарившегося топлива (для порции #1)                  
 HRR         Скорость тепловыделения, [Дж/град.]                         
 Ksi_b       Степень эффективности использования воздушного заряда       
 I_LW_1p     Интеграл Livengood-Wu для порц. №1 (модиф. уравн. Толстова) 
 SMD         Средний диаметр капель по Заутеру, [мкм]                    
 Inj_pofile  Характеристика впрыска (безразмерная)                       
 Names
  Fi          dx/dFi      x           Uo          Pвпр        NOx         T_burn      Soot        S_обол      S_ядр.C     S_фронт     S_ядр.W     S_яд.Ws     S_крыш      S_цил       P_pist      Spray_tip   Spray_ang   Evap_zon    Evap_1p     HRR         Ksi_b       I_LW_1p     SMD         Inj_pofile
 Arrays
   345.0       0.000       0.000       0.000       58.48       0.000       935.1      0.6982E-01   0.000       0.000       0.000       0.000       0.000       0.000       0.000        92.961    0.2000E+26   62.44       0.000      0.2000E+26   0.000      0.2000E+26   0.000      0.2000E+26 -0.1000E-01
   345.2       0.000       0.000       23.28       69.08       0.000       937.2      0.6982E-01  0.5048E-03  0.6764E-04  0.3063E-06   0.000       0.000       0.000       0.000        93.014     1.864       47.31      0.8982E-04  0.2737E-06   0.000      0.2000E+26  0.3208E-01   61.13     -0.9423E-02
   345.4       0.000       0.000       46.56       79.68       0.000       939.3      0.6982E-01  0.1119E-02  0.1736E-03  0.1223E-05   0.000       0.000       0.000       0.000        93.066     3.568       34.83      0.2925E-03  0.2164E-05   0.000      0.2000E+26  0.6450E-01   42.28     -0.8845E-02
   345.6       0.000       0.000       69.83       90.28       0.000       941.4      0.6982E-01  0.2413E-02  0.5183E-03  0.5944E-05   0.000       0.000       0.000       0.000        93.118     4.742       31.65      0.6919E-03  0.8141E-05   0.000      0.2000E+26  0.9724E-01   33.75     -0.8268E-02
   345.8       0.000       0.000       93.11       100.9       0.000       943.6      0.6982E-01  0.3857E-02  0.9636E-03  0.1452E-04   0.000       0.000       0.000       0.000        93.170     5.768       29.72      0.1348E-02  0.2173E-04   0.000      0.2000E+26  0.1303       28.96     -0.7690E-02
   346.0       0.000       0.000       116.4       111.5       0.000       945.7      0.6982E-01  0.5694E-02  0.1672E-02  0.3318E-04   0.000       0.000       0.000       0.000        93.222     6.719       28.25      0.2285E-02  0.4751E-04   0.000      0.2000E+26  0.1637       25.72     -0.7113E-02
   346.2       0.000       0.000       139.5       140.1       0.000       947.6      0.6982E-01  0.7745E-02  0.2611E-02  0.6834E-04   0.000       0.000       0.000       0.000        93.271     7.607       27.10      0.3512E-02  0.9109E-04   0.000      0.2000E+26  0.1974       23.36     -0.6539E-02
   346.4       0.000       0.000       162.1       168.7       0.000       949.5      0.6983E-01  0.1010E-01  0.3876E-02  0.1268E-03   0.000       0.000       0.000       0.000        93.319     8.445       26.16      0.5021E-02  0.1588E-03   0.000      0.2000E+26  0.2315       21.56     -0.5979E-02
   346.6       0.000       0.000       184.6       197.3       0.000       951.5      0.6983E-01  0.1263E-01  0.5423E-02  0.2174E-03   0.000       0.000       0.000       0.000        93.368     9.236       25.40      0.6763E-02  0.2587E-03   0.000      0.2000E+26  0.2659       19.94     -0.5420E-02
   346.8       0.000       0.000       207.1       225.9       0.000       953.4      0.6984E-01  0.1531E-01  0.7196E-02  0.3340E-03   0.000       0.000       0.000       0.000        93.417     9.985       24.75      0.8698E-02  0.3991E-03   0.000      0.2000E+26  0.3006       18.76     -0.4862E-02
   347.0       0.000       0.000       229.6       254.5       0.000       955.3      0.6984E-01  0.1819E-01  0.9427E-02  0.5261E-03   0.000       0.000       0.000       0.000        93.465     10.70       24.19      0.1083E-01  0.5894E-03   0.000      0.2000E+26  0.3356       17.76     -0.4304E-02
   347.2       0.000       0.000       252.1       291.5       0.000       957.1      0.6986E-01  0.2116E-01  0.1186E-01  0.7521E-03   0.000       0.000       0.000       0.000        93.510     11.40       23.68      0.1315E-01  0.8392E-03   0.000      0.2000E+26  0.3710       16.89     -0.3746E-02
   347.4       0.000       0.000       273.4       328.4       0.000       958.8      0.6988E-01  0.2423E-01  0.1473E-01  0.1083E-02   0.000       0.000       0.000       0.000        93.556     12.07       23.24      0.1566E-01  0.1159E-02   0.000      0.2000E+26  0.4067       16.18     -0.3217E-02
   347.6       0.000       0.000       287.8       365.4       0.000       960.6      0.6989E-01  0.2732E-01  0.1770E-01  0.1436E-02   0.000       0.000       0.000       0.000        93.601     12.71       22.84      0.1837E-01  0.1559E-02   0.000      0.2000E+26  0.4428       15.61     -0.2861E-02
   347.8       0.000       0.000       302.1       402.3       0.000       962.3      0.6991E-01  0.3038E-01  0.2116E-01  0.1979E-02   0.000       0.000       0.000       0.000        93.646     13.33       22.48      0.2128E-01  0.2044E-02   0.000      0.2000E+26  0.4791       15.21     -0.2505E-02
   348.0       0.000       0.000       316.5       439.2       0.000       964.0      0.6993E-01  0.3344E-01  0.2467E-01  0.2550E-02   0.000       0.000       0.000       0.000        93.691     13.93       22.15      0.2437E-01  0.2623E-02   0.000      0.2000E+26  0.5158       14.84     -0.2149E-02
   348.2       0.000       0.000       330.8       452.5       0.000       965.6      0.6997E-01  0.3648E-01  0.2856E-01  0.3308E-02   0.000       0.000       0.000       0.000        93.733     14.51       21.85      0.2766E-01  0.3303E-02   0.000      0.2000E+26  0.5528       14.49     -0.1793E-02
   348.4       0.000       0.000       345.2       465.7       0.000       967.2      0.7000E-01  0.3948E-01  0.3251E-01  0.4137E-02   0.000       0.000       0.000       0.000        93.774     15.08       21.57      0.3114E-01  0.4093E-02   0.000      0.2000E+26  0.5902       14.17     -0.1437E-02
   348.6       0.000       0.000       354.8       479.0       0.000       968.8      0.7004E-01  0.4237E-01  0.3669E-01  0.5183E-02   0.000       0.000       0.000       0.000        93.816     15.63       21.31      0.3481E-01  0.4999E-02   0.000      0.2000E+26  0.6278       13.85     -0.1200E-02
   348.8       0.000       0.000       355.5       492.2       0.000       970.3      0.7008E-01  0.4516E-01  0.4087E-01  0.6339E-02   0.000       0.000       0.000       0.000        93.857     16.17       21.07      0.3865E-01  0.6021E-02   0.000      0.2000E+26  0.6658       13.83     -0.1182E-02
   349.0       0.000       0.000       354.7       505.5       0.000       971.9      0.7011E-01  0.4779E-01  0.4505E-01  0.7671E-02   0.000       0.000       0.000       0.000        93.899     16.69       20.85      0.4267E-01  0.7155E-02   0.000      0.2000E+26  0.7041       13.85     -0.1202E-02
   349.2       0.000       0.000       353.9       507.4      0.1274E-02   1037.      0.6599E-01  0.5029E-01  0.4915E-01  0.9194E-02   0.000       0.000       0.000       0.000        93.937     17.20       20.64      0.4684E-01  0.8399E-02   0.000      0.2000E+26  0.7427       13.87     -0.1221E-02
   349.4       0.000       0.000       353.1       509.3      0.2547E-02   1103.      0.6186E-01  0.5267E-01  0.5318E-01  0.1089E-01   0.000       0.000       0.000       0.000        93.975     17.69       20.45      0.5118E-01  0.9750E-02   0.000      0.2000E+26  0.7817       13.88     -0.1240E-02
   349.6       0.000       0.000       352.4       511.2      0.3821E-02   1168.      0.5773E-01  0.5495E-01  0.5705E-01  0.1284E-01   0.000       0.000       0.000       0.000        94.013     18.18       20.26      0.5566E-01  0.1121E-01   0.000      0.2000E+26  0.8209       13.79     -0.1259E-02
   349.8       0.000       0.000       352.9       513.1      0.5095E-02   1234.      0.5361E-01  0.5718E-01  0.6084E-01  0.1492E-01   0.000       0.000       0.000       0.000        94.051     18.65       20.09      0.6029E-01  0.1277E-01   0.000      0.2000E+26  0.8605       13.78     -0.1246E-02
   350.0      0.5137E-04  0.1027E-04   354.8       515.0      0.6369E-02   1299.      0.4948E-01  0.5937E-01  0.6444E-01  0.1729E-01   0.000       0.000       0.000       0.000        94.089     19.11       19.93      0.6507E-01  0.1444E-01  0.7537E-01  0.2000E+26  0.9004       13.74     -0.1198E-02
   350.2      0.3287E-03  0.7602E-04   357.1       519.5      0.1993E-01   1558.      0.8308E-01  0.6154E-01  0.6800E-01  0.1975E-01   0.000       0.000       0.000       0.000        94.124     19.56       19.77      0.6999E-01  0.1622E-01  0.4823      0.2000E+26  0.9405       13.69     -0.1141E-02
   350.4      0.6808E-03  0.2122E-03   359.5       524.1      0.3349E-01   1816.      0.1167      0.6371E-01  0.7137E-01  0.2248E-01   0.000       0.000       0.000       0.000        94.158     20.00       19.62      0.7505E-01  0.1810E-01  0.9988      0.2000E+26  0.9811       13.64     -0.1083E-02
   350.6      0.1059E-02  0.4240E-03   361.8       528.7      0.4706E-01   2075.      0.1503      0.6589E-01  0.7471E-01  0.2526E-01   0.000       0.000       0.000       0.000        94.193     20.43       19.48      0.8024E-01  0.2008E-01   1.554      0.2000E+26   1.000       13.50     -0.1025E-02
   350.8      0.1446E-02  0.7132E-03   364.1       533.2      0.6062E-01   2333.      0.1839      0.6812E-01  0.7774E-01  0.2836E-01   0.000       0.000       0.000       0.000        94.227     20.85       19.35      0.8557E-01  0.2218E-01   2.122      0.2000E+26  0.2000E+26   13.45     -0.9675E-03
   351.0      0.1830E-02  0.1079E-02   365.2       537.8      0.7418E-01   2592.      0.2175      0.7038E-01  0.8070E-01  0.3152E-01   0.000       0.000       0.000       0.000        94.262     21.26       19.23      0.9103E-01  0.2438E-01   2.685      0.2000E+26  0.2000E+26   13.43     -0.9408E-03
   351.2      0.2200E-02  0.1519E-02   365.1       537.6      0.1522       2594.      0.3457      0.7272E-01  0.8335E-01  0.3490E-01   0.000       0.000       0.000       0.000        94.293     21.67       19.11      0.9661E-01  0.2000E+26   3.227      0.9996      0.2000E+26   13.43     -0.9440E-03
   351.4      0.2788E-02  0.2077E-02   364.7       537.4      0.2303       2596.      0.4738      0.7511E-01  0.8591E-01  0.3832E-01   0.000       0.000       0.000       0.000        94.324     22.06       18.99      0.1023      0.2000E+26   4.090      0.9806      0.2000E+26   13.44     -0.9535E-03
   351.6      0.3943E-02  0.2865E-02   364.3       537.2      0.3083       2598.      0.6020      0.7761E-01  0.8828E-01  0.4181E-01   0.000       0.000       0.000       0.000        94.354     22.45       18.88      0.1081      0.2000E+26   5.784      0.9616      0.2000E+26   13.34     -0.9631E-03
   351.8      0.5393E-02  0.3944E-02   363.9       537.0      0.3863       2601.      0.7301      0.8019E-01  0.9072E-01  0.4515E-01   0.000       0.000       0.000       0.000        94.385     22.83       18.77      0.1141      0.2000E+26   7.912      0.9427      0.2000E+26   13.35     -0.9727E-03
   352.0      0.6990E-02  0.5342E-02   363.8       536.8      0.4644       2603.      0.8583      0.8286E-01  0.9324E-01  0.4832E-01   0.000       0.000       0.000       0.000        94.416     23.20       18.67      0.1201      0.2000E+26   10.25      0.9238      0.2000E+26   13.35     -0.9748E-03
   352.2      0.8614E-02  0.7065E-02   364.7       544.1      0.7810       2602.       1.595      0.8568E-01  0.9605E-01  0.5109E-01   0.000       0.000       0.000       0.000        94.444     23.56       18.58      0.1262      0.2000E+26   12.64      0.9051      0.2000E+26   13.34     -0.9531E-03
   352.4      0.1018E-01  0.9101E-02   367.0       551.5       1.098       2602.       2.332      0.8859E-01  0.9903E-01  0.5363E-01   0.000       0.000       0.000       0.000        94.471     23.92       18.48      0.1324      0.2000E+26   14.94      0.8864      0.2000E+26   13.29     -0.8956E-03
   352.6      0.2953E-01  0.1501E-01   369.6       558.8       1.414       2601.       3.069      0.9171E-01  0.1020      0.5605E-01   0.000       0.000       0.000       0.000        94.498     24.27       18.39      0.1387      0.2000E+26   43.32      0.8679      0.2000E+26   13.16     -0.8316E-03
   352.8      0.3739E-01  0.2248E-01   372.2       566.1       1.731       2601.       3.806      0.9490E-01  0.1050      0.5843E-01   0.000       0.000       0.000       0.000        94.525     24.61       18.31      0.1451      0.2000E+26   54.85      0.8495      0.2000E+26   13.11     -0.7676E-03
   353.0      0.3812E-01  0.3011E-01   374.8       573.5       2.048       2600.       4.543      0.9845E-01  0.1074      0.6106E-01   0.000       0.000       0.000       0.000        94.553     24.95       18.22      0.1516      0.2000E+26   55.93      0.8314      0.2000E+26   13.06     -0.7036E-03
   353.2      0.3848E-01  0.3780E-01   376.7       571.1       2.895       2603.       5.033      0.1021      0.1098      0.6372E-01   0.000       0.000       0.000       0.000        94.576     25.28       18.14      0.1582      0.2000E+26   56.46      0.8134      0.2000E+26   13.03     -0.6549E-03
   353.4      0.3846E-01  0.4550E-01   378.1       568.8       3.743       2606.       5.524      0.1061      0.1119      0.6630E-01   0.000       0.000       0.000       0.000        94.600     25.60       18.07      0.1648      0.2000E+26   56.42      0.7956      0.2000E+26   13.00     -0.6215E-03
   353.6      0.3808E-01  0.5311E-01   377.0       566.5       4.591       2609.       6.015      0.1101      0.1139      0.6882E-01   0.000       0.000       0.000       0.000        94.624     25.92       17.99      0.1715      0.2000E+26   55.87      0.7781      0.2000E+26   12.94     -0.6470E-03
   353.8      0.4143E-01  0.6140E-01   376.0       564.2       5.439       2612.       6.506      0.1145      0.1159      0.7108E-01   0.000       0.000       0.000       0.000        94.648     26.23       17.92      0.1783      0.2000E+26   60.78      0.7608      0.2000E+26   12.96     -0.6725E-03
   354.0      0.4208E-01  0.6981E-01   375.0       561.9       6.287       2615.       6.996      0.1191      0.1177      0.7335E-01   0.000       0.000       0.000       0.000        94.671     26.54       17.85      0.1851      0.2000E+26   61.74      0.7438      0.2000E+26   12.98     -0.6979E-03
   354.2      0.4089E-01  0.7799E-01   374.0       551.2       7.913       2619.       7.111      0.1238      0.1192      0.7562E-01   0.000       0.000       0.000       0.000        94.691     26.84       17.78      0.1920      0.2000E+26   59.99      0.7271      0.2000E+26   13.00     -0.7234E-03
   354.4      0.3964E-01  0.8592E-01   372.3       540.5       9.538       2623.       7.226      0.1289      0.1198      0.7793E-01  0.5568E-03   0.000       0.000       0.000        94.711     27.13       17.72      0.1990      0.2000E+26   58.15      0.7107      0.2000E+26   13.03     -0.7639E-03
   354.6      0.3839E-01  0.9360E-01   369.6       529.8       11.16       2627.       7.341      0.1342      0.1194      0.8029E-01  0.1780E-02   0.000       0.000       0.000        94.731     27.42       17.66      0.2060      0.2000E+26   56.32      0.6947      0.2000E+26   13.02     -0.8318E-03
   354.8      0.3712E-01  0.1010       365.7       519.1       12.79       2631.       7.455      0.1400      0.1182      0.7870E-01  0.7045E-02   0.000       0.000       0.000        94.752     27.72       17.65      0.2130      0.2000E+26   54.45      0.6790      0.2000E+26   13.09     -0.9284E-03
   355.0      0.3595E-01  0.1082       361.4       508.4       14.42       2635.       7.570      0.1462      0.1165      0.7441E-01  0.1508E-01   0.000       0.000       0.000        94.772     28.02       17.66      0.2201      0.2000E+26   52.75      0.6636      0.2000E+26   13.17     -0.1035E-02
   355.2      0.3492E-01  0.1152       357.1       507.9       16.98       2639.       7.520      0.1525      0.1145      0.6936E-01  0.2404E-01   0.000       0.000       0.000        94.788     28.29       17.66      0.2273      0.2000E+26   51.23      0.6487      0.2000E+26   13.26     -0.1142E-02
   355.4      0.3401E-01  0.1220       352.8       507.3       19.55       2643.       7.470      0.1587      0.1124      0.6402E-01  0.3335E-01   0.000       0.000       0.000        94.804     28.57       17.66      0.2346      0.2000E+26   49.90      0.6341      0.2000E+26   13.34     -0.1248E-02
   355.6      0.3324E-01  0.1286       348.5       506.8       22.12       2646.       7.421      0.1655      0.1101      0.5787E-01  0.4306E-01   0.000       0.000       0.000        94.821     28.84       17.66      0.2419      0.2000E+26   48.76      0.6199      0.2000E+26   13.37     -0.1355E-02
   355.8      0.3214E-01  0.1351       348.6       506.2       24.68       2650.       7.371      0.1724      0.1077      0.5158E-01  0.5282E-01   0.000       0.000       0.000        94.837     29.12       17.66      0.2493      0.2000E+26   47.15      0.6062      0.2000E+26   13.37     -0.1352E-02
   356.0      0.3174E-01  0.1414       350.1       505.7       27.25       2654.       7.321      0.1801      0.1059      0.4424E-01  0.6239E-01   0.000       0.000       0.000        94.854     29.38       17.66      0.2568      0.2000E+26   46.57      0.5929      0.2000E+26   13.34     -0.1314E-02
   356.2      0.3136E-01  0.1477       352.0       510.6       30.85       2657.       7.243      0.1878      0.1041      0.3684E-01  0.7188E-01   0.000       0.000       0.000        94.867     29.65       17.66      0.2644      0.2000E+26   46.00      0.5800      0.2000E+26   13.30     -0.1268E-02
   356.4      0.3099E-01  0.1539       353.9       515.5       34.45       2660.       7.164      0.1956      0.1031      0.2914E-01  0.8093E-01   0.000       0.000       0.000        94.879     29.91       17.66      0.2721      0.2000E+26   45.46      0.5676      0.2000E+26   13.27     -0.1222E-02
   356.6      0.3063E-01  0.1600       355.7       520.5       38.05       2663.       7.086      0.2035      0.1022      0.2145E-01  0.8989E-01   0.000       0.000       0.000        94.892     30.17       17.66      0.2799      0.2000E+26   44.94      0.5557      0.2000E+26   13.18     -0.1176E-02
   356.8      0.3029E-01  0.1661       357.5       525.4       41.65       2667.       7.007      0.2114      0.1015      0.1376E-01  0.9866E-01   0.000       0.000       0.000        94.905     30.43       17.66      0.2878      0.2000E+26   44.44      0.5442      0.2000E+26   13.15     -0.1131E-02
   357.0      0.2996E-01  0.1721       359.2       530.3       45.26       2670.       6.929      0.2175      0.1009      0.7207E-02  0.1078       0.000       0.000       0.000        94.918     30.69       17.66      0.2957      0.2000E+26   43.96      0.5333      0.2000E+26   13.11     -0.1089E-02
   357.2      0.2963E-01  0.1780       360.9       533.9       49.92       2672.       6.845      0.2214      0.1007      0.2199E-02  0.1175       0.000       0.000       0.000        94.927     30.94       17.66      0.3038      0.2000E+26   43.48      0.5228      0.2000E+26   13.08     -0.1049E-02
   357.4      0.2934E-01  0.1839       362.5       537.5       54.59       2675.       6.761      0.2258      0.1009       0.000      0.1235       0.000       0.000       0.000        94.936     31.20       17.66      0.3120      0.2000E+26   43.04      0.5128      0.2000E+26   13.05     -0.1009E-02
   357.6      0.2905E-01  0.1897       364.1       541.1       59.26       2678.       6.677      0.2306      0.1014       0.000      0.1265       0.000       0.000       0.000        94.945     31.45       17.66      0.3202      0.2000E+26   42.62      0.5033      0.2000E+26   12.99     -0.9693E-03
   357.8      0.2878E-01  0.1954       365.6       544.7       63.93       2680.       6.593      0.2355      0.1020       0.000      0.1294       0.000       0.000       0.000        94.954     31.70       17.66      0.3284      0.2000E+26   42.22      0.4944      0.2000E+26   12.96     -0.9302E-03
   358.0      0.2840E-01  0.2011       366.8       548.3       68.60       2683.       6.509      0.2404      0.1028       0.000      0.1321       0.000       0.000       0.000        94.963     31.94       17.66      0.3368      0.2000E+26   41.67      0.4859      0.2000E+26   12.94     -0.9019E-03
   358.2      0.2817E-01  0.2068       367.8       550.1       74.29       2685.       6.435      0.2453      0.1037       0.000      0.1348       0.000       0.000       0.000        94.969     32.19       17.66      0.3451      0.2000E+26   41.33      0.4780      0.2000E+26   12.92     -0.8770E-03
   358.4      0.2793E-01  0.2124       368.0       551.9       79.98       2687.       6.360      0.2503      0.1045       0.000      0.1374       0.000       0.000       0.000        94.974     32.43       17.66      0.3535      0.2000E+26   40.98      0.4705      0.2000E+26   12.91     -0.8704E-03
   358.6      0.2770E-01  0.2179       368.3       553.7       85.67       2689.       6.286      0.2559      0.1043       0.000      0.1404       0.000       0.000       0.000        94.980     32.67       17.66      0.3620      0.2000E+26   40.64      0.4636      0.2000E+26   12.89     -0.8638E-03
   358.8      0.2747E-01  0.2234       368.6       555.5       91.36       2691.       6.212      0.2617      0.1040       0.000      0.1434       0.000       0.000       0.000        94.985     32.91       17.66      0.3706      0.2000E+26   40.31      0.4572      0.2000E+26   12.88     -0.8572E-03
   359.0      0.2725E-01  0.2288       369.1       557.4       97.05       2693.       6.138      0.2684      0.1035       0.000      0.1458       0.000       0.000       0.000        94.991     33.15       17.66      0.3791      0.2000E+26   39.98      0.4514      0.2000E+26   12.87     -0.8451E-03
   359.2      0.2704E-01  0.2342       370.0       565.6       103.7       2695.       6.074      0.2750      0.1029       0.000      0.1482       0.000       0.000       0.000        94.993     33.39       17.66      0.3878      0.2000E+26   39.67      0.4461      0.2000E+26   12.85     -0.8208E-03
   359.4      0.2684E-01  0.2396       371.7       573.9       110.2       2696.       6.009      0.2818      0.1024       0.000      0.1505       0.000       0.000       0.000        94.995     33.62       17.66      0.3964      0.2000E+26   39.37      0.4412      0.2000E+26   12.82     -0.7794E-03
   359.6      0.2665E-01  0.2449       374.6       582.1       116.8       2698.       5.945      0.2883      0.1020       0.000      0.1531       0.000       0.000       0.000        94.996     33.85       17.66      0.4052      0.2000E+26   39.09      0.4369      0.2000E+26   12.76     -0.7068E-03
   359.8      0.2646E-01  0.2502       377.6       590.4       123.4       2699.       5.881      0.2944      0.1016       0.000      0.1560       0.000       0.000       0.000        94.998     34.08       17.66      0.4139      0.2000E+26   38.82      0.4331      0.2000E+26   12.71     -0.6342E-03
   360.0      0.2629E-01  0.2555       380.5       598.7       130.0       2701.       5.817      0.2999      0.1013       0.000      0.1596       0.000       0.000       0.000        95.000     34.31       17.66      0.4228      0.2000E+26   38.57      0.4298      0.2000E+26   12.65     -0.5616E-03
   360.2      0.2613E-01  0.2607       383.5       610.2       137.4       2702.       5.766      0.3049      0.1010       0.000      0.1638       0.000       0.000       0.000        94.998     34.54       17.66      0.4316      0.2000E+26   38.34      0.4271      0.2000E+26   12.60     -0.4875E-03
   360.4      0.2599E-01  0.2659       386.6       621.7       144.7       2703.       5.715      0.3098      0.1008       0.000      0.1680       0.000       0.000       0.000        94.996     34.77       17.66      0.4406      0.2000E+26   38.13      0.4248      0.2000E+26   12.55     -0.4107E-03
   360.6      0.2586E-01  0.2711       389.8       633.2       152.0       2704.       5.663      0.3147      0.1008       0.000      0.1721       0.000       0.000       0.000        94.995     34.99       17.66      0.4496      0.2000E+26   37.94      0.4230      0.2000E+26   12.49     -0.3311E-03
   360.8      0.2575E-01  0.2762       393.2       644.7       159.4       2705.       5.612      0.3196      0.1010       0.000      0.1761       0.000       0.000       0.000        94.993     35.22       17.66      0.4587      0.2000E+26   37.78      0.4217      0.2000E+26   12.44     -0.2453E-03
   361.0      0.2567E-01  0.2814       396.7       656.3       166.7       2706.       5.561      0.3245      0.1012       0.000      0.1801       0.000       0.000       0.000        94.991     35.44       17.66      0.4678      0.2000E+26   37.65      0.4208      0.2000E+26   12.38     -0.1595E-03
   361.2      0.2560E-01  0.2865       400.2       649.8       174.6       2706.       5.527      0.3291      0.1015       0.000      0.1844       0.000       0.000       0.000        94.985     35.66       17.66      0.4770      0.2000E+26   37.55      0.4205      0.2000E+26   12.32     -0.7363E-04
   361.4      0.2554E-01  0.2916       403.1       643.3       182.5       2707.       5.494      0.3336      0.1018       0.000      0.1888       0.000       0.000       0.000        94.980     35.88       17.66      0.4863      0.2000E+26   37.47      0.4206      0.2000E+26   12.27       0.000    
   361.6      0.2551E-01  0.2967       402.7       636.8       190.4       2708.       5.460      0.3378      0.1021       0.000      0.1936       0.000       0.000       0.000        94.974     36.10       17.66      0.4956      0.2000E+26   37.42      0.4211      0.2000E+26   12.29     -0.9451E-05
   361.8      0.2549E-01  0.3018       402.4       630.3       198.2       2708.       5.426      0.3418      0.1021       0.000      0.1987       0.000       0.000       0.000        94.969     36.31       17.66      0.5050      0.2000E+26   37.40      0.4221      0.2000E+26   12.30     -0.1906E-04
   362.0      0.2548E-01  0.3069       397.8       623.8       206.1       2709.       5.393      0.3454      0.1015       0.000      0.2048       0.000       0.000       0.000        94.963     36.53       17.66      0.5144      0.2000E+26   37.39      0.4235      0.2000E+26   12.37     -0.1313E-03
   362.2      0.2550E-01  0.3120       393.3       618.1       214.4       2709.       5.378      0.3489      0.1008       0.000      0.2109       0.000       0.000       0.000        94.954     36.74       17.66      0.5240      0.2000E+26   37.41      0.4254      0.2000E+26   12.45     -0.2435E-03
   362.4      0.2553E-01  0.3171       388.8       612.3       222.6       2709.       5.363      0.3524      0.9991E-01   0.000      0.2171       0.000       0.000       0.000        94.945     36.96       17.66      0.5336      0.2000E+26   37.46      0.4276      0.2000E+26   12.52     -0.3558E-03
   362.6      0.2558E-01  0.3222       384.3       606.6       230.9       2709.       5.348      0.3559      0.9892E-01   0.000      0.2235       0.000       0.000       0.000        94.936     37.17       17.66      0.5432      0.2000E+26   37.53      0.4303      0.2000E+26   12.62     -0.4680E-03
   362.8      0.2565E-01  0.3273       382.5       600.9       239.1       2709.       5.332      0.3593      0.9781E-01   0.000      0.2300       0.000       0.000       0.000        94.927     37.38       17.66      0.5529      0.2000E+26   37.63      0.4333      0.2000E+26   12.66     -0.5120E-03
   363.0      0.2574E-01  0.3325       382.1       595.1       247.4       2709.       5.317      0.3626      0.9653E-01   0.000      0.2367       0.000       0.000       0.000        94.918     37.59       17.66      0.5627      0.2000E+26   37.76      0.4367      0.2000E+26   12.66     -0.5219E-03
   363.2      0.2584E-01  0.3377       382.3       591.7       255.8       2709.       5.322      0.3659      0.9516E-01   0.000      0.2436       0.000       0.000       0.000        94.905     37.80       17.66      0.5726      0.2000E+26   37.91      0.4405      0.2000E+26   12.66     -0.5156E-03
   363.4      0.2596E-01  0.3429       383.4       588.3       264.3       2709.       5.326      0.3695      0.9386E-01   0.000      0.2501       0.000       0.000       0.000        94.892     38.00       17.66      0.5825      0.2000E+26   38.09      0.4446      0.2000E+26   12.64     -0.4899E-03
   363.6      0.2611E-01  0.3481       384.3       584.9       272.7       2708.       5.331      0.3732      0.9258E-01   0.000      0.2565       0.000       0.000       0.000        94.879     38.21       17.66      0.5925      0.2000E+26   38.30      0.4491      0.2000E+26   12.66     -0.4669E-03
   363.8      0.2628E-01  0.3533       384.9       581.5       281.2       2708.       5.335      0.3791      0.9207E-01   0.000      0.2600       0.000       0.000       0.000        94.867     38.41       17.66      0.6025      0.2000E+26   38.56      0.4539      0.2000E+26   12.65     -0.4526E-03
   364.0      0.2647E-01  0.3586       385.5       578.0       289.6       2708.       5.340      0.3852      0.9167E-01   0.000      0.2630       0.000       0.000       0.000        94.854     38.62       17.66      0.6125      0.2000E+26   38.84      0.4590      0.2000E+26   12.64     -0.4383E-03
   364.2      0.2668E-01  0.3640       381.8       571.0       298.1       2707.       5.362      0.3917      0.9188E-01   0.000      0.2650       0.000       0.000       0.000        94.837     38.82       17.66      0.6226      0.2000E+26   39.14      0.4643      0.2000E+26   12.70     -0.5301E-03
   364.4      0.2689E-01  0.3693       377.9       563.9       306.7       2707.       5.384      0.3983      0.9214E-01   0.000      0.2668       0.000       0.000       0.000        94.821     39.02       17.66      0.6326      0.2000E+26   39.45      0.4700      0.2000E+26   12.77     -0.6263E-03
   364.6      0.2712E-01  0.3748       374.0       556.8       315.2       2706.       5.406      0.4048      0.9256E-01   0.000      0.2684       0.000       0.000       0.000        94.804     39.22       17.66      0.6427      0.2000E+26   39.79      0.4759      0.2000E+26   12.89     -0.7225E-03
   364.8      0.2736E-01  0.3802       370.1       549.8       323.7       2705.       5.428      0.4114      0.9290E-01   0.000      0.2700       0.000       0.000       0.000        94.788     39.42       17.66      0.6527      0.2000E+26   40.14      0.4821      0.2000E+26   12.96     -0.8187E-03
   365.0      0.2760E-01  0.3858       367.1       542.7       332.3       2705.       5.451      0.4178      0.9305E-01   0.000      0.2717       0.000       0.000       0.000        94.772     39.62       17.66      0.6628      0.2000E+26   40.49      0.4885      0.2000E+26   13.01     -0.8935E-03
   365.2      0.2785E-01  0.3913       365.7       544.6       340.8       2704.       5.484      0.4243      0.9290E-01   0.000      0.2738       0.000       0.000       0.000        94.752     39.82       17.66      0.6729      0.2000E+26   40.86      0.4952      0.2000E+26   13.04     -0.9288E-03
   365.4      0.2810E-01  0.3969       364.3       546.6       349.3       2703.       5.518      0.4307      0.9239E-01   0.000      0.2763       0.000       0.000       0.000        94.731     40.02       17.66      0.6829      0.2000E+26   41.23      0.5021      0.2000E+26   13.07     -0.9637E-03
   365.6      0.2836E-01  0.4026       365.1       548.6       357.8       2702.       5.552      0.4371      0.9176E-01   0.000      0.2789       0.000       0.000       0.000        94.711     40.21       17.66      0.6930      0.2000E+26   41.61      0.5091      0.2000E+26   13.11     -0.9445E-03
   365.8      0.2862E-01  0.4083       365.8       550.5       366.3       2701.       5.585      0.4435      0.9106E-01   0.000      0.2816       0.000       0.000       0.000        94.691     40.41       17.66      0.7031      0.2000E+26   41.99      0.5164      0.2000E+26   13.09     -0.9253E-03
   366.0      0.2889E-01  0.4141       366.6       552.5       374.8       2700.       5.619      0.4496      0.9051E-01   0.000      0.2845       0.000       0.000       0.000        94.671     40.60       17.66      0.7131      0.2000E+26   42.38      0.5238      0.2000E+26   13.08     -0.9069E-03
   366.2      0.2916E-01  0.4200       367.3       550.4       383.2       2699.       5.659      0.4557      0.9002E-01   0.000      0.2873       0.000       0.000       0.000        94.648     40.79       17.66      0.7232      0.2000E+26   42.77      0.5314      0.2000E+26   13.07     -0.8890E-03
   366.4      0.2942E-01  0.4258       367.7       548.2       391.7       2698.       5.699      0.4614      0.9009E-01   0.000      0.2900       0.000       0.000       0.000        94.624     40.98       17.66      0.7332      0.2000E+26   43.17      0.5391      0.2000E+26   13.06     -0.8798E-03
   366.6      0.2969E-01  0.4318       366.9       546.1       400.1       2697.       5.739      0.4670      0.9025E-01   0.000      0.2926       0.000       0.000       0.000        94.600     41.18       17.66      0.7433      0.2000E+26   43.56      0.5469      0.2000E+26   13.14     -0.8991E-03
   366.8      0.2995E-01  0.4378       366.1       544.0       408.5       2696.       5.779      0.4727      0.9083E-01   0.000      0.2947       0.000       0.000       0.000        94.577     41.37       17.66      0.7533      0.2000E+26   43.94      0.5549      0.2000E+26   13.16     -0.9183E-03
   367.0      0.3021E-01  0.4438       365.3       541.9       416.9       2695.       5.819      0.4785      0.9138E-01   0.000      0.2968       0.000       0.000       0.000        94.553     41.56       17.66      0.7632      0.2000E+26   44.33      0.5629      0.2000E+26   13.17     -0.9375E-03
   367.2      0.3047E-01  0.4499       364.6       528.5       425.2       2693.       5.862      0.4846      0.9180E-01   0.000      0.2986       0.000       0.000       0.000        94.526     41.74       17.66      0.7732      0.2000E+26   44.71      0.5711      0.2000E+26   13.18     -0.9567E-03
   367.4      0.3073E-01  0.4561       362.6       515.1       433.4       2692.       5.904      0.4911      0.9212E-01   0.000      0.3000       0.000       0.000       0.000        94.498     41.93       17.66      0.7831      0.2000E+26   45.09      0.5793      0.2000E+26   13.22     -0.1005E-02
   367.6      0.3099E-01  0.4622       358.5       501.7       441.7       2691.       5.947      0.4985      0.9222E-01   0.000      0.3006       0.000       0.000       0.000        94.471     42.12       17.66      0.7929      0.2000E+26   45.47      0.5877      0.2000E+26   13.38     -0.1107E-02
   367.8      0.3125E-01  0.4685       354.4       488.3       449.9       2689.       5.989      0.5063      0.9199E-01   0.000      0.3011       0.000       0.000       0.000        94.444     42.30       17.66      0.8027      0.2000E+26   45.85      0.5960      0.2000E+26   13.46     -0.1208E-02
   368.0      0.3150E-01  0.4748       348.5       474.9       458.2       2688.       6.031      0.5146      0.9134E-01   0.000      0.3013       0.000       0.000       0.000        94.416     42.49       17.66      0.8125      0.2000E+26   46.21      0.6044      0.2000E+26   13.58     -0.1356E-02
   368.2      0.3174E-01  0.4811       342.3       452.7       466.2       2686.       6.073      0.5231      0.9045E-01   0.000      0.3015       0.000       0.000       0.000        94.385     42.67       17.66      0.8222      0.2000E+26   46.57      0.6129      0.2000E+26   13.71     -0.1510E-02
   368.4      0.3198E-01  0.4875       335.5       430.5       474.2       2685.       6.114      0.5316      0.8939E-01   0.000      0.3016       0.000       0.000       0.000        94.354     42.86       17.66      0.8319      0.2000E+26   46.92      0.6213      0.2000E+26   13.86     -0.1677E-02
   368.6      0.3222E-01  0.4940       327.9       408.3       482.2       2683.       6.155      0.5406      0.8825E-01   0.000      0.3011       0.000       0.000       0.000        94.324     43.04       17.66      0.8415      0.2000E+26   47.26      0.6298      0.2000E+26   14.12     -0.1867E-02
   368.8      0.3244E-01  0.5005       320.2       386.1       490.2       2682.       6.197      0.5497      0.8709E-01   0.000      0.3005       0.000       0.000       0.000        94.293     43.22       17.66      0.8511      0.2000E+26   47.60      0.6383      0.2000E+26   14.30     -0.2057E-02
   369.0      0.3266E-01  0.5070       308.9       363.8       498.3       2680.       6.238      0.5586      0.8555E-01   0.000      0.2999       0.000       0.000       0.000        94.262     43.40       17.66      0.8607      0.2000E+26   47.91      0.6467      0.2000E+26   14.57     -0.2337E-02
   369.2      0.3286E-01  0.5136       296.9       339.0       506.0       2678.       6.274      0.5673      0.8395E-01   0.000      0.2993       0.000       0.000       0.000        94.227     43.58       17.66      0.8701      0.2000E+26   48.21      0.6552      0.2000E+26   14.89     -0.2635E-02
   369.4      0.3305E-01  0.5202       284.9       314.1       513.7       2677.       6.309      0.5732      0.8200E-01   0.000      0.3016       0.000       0.000       0.000        94.193     43.76       17.66      0.8796      0.2000E+26   48.48      0.6636      0.2000E+26   15.22     -0.2934E-02
   369.6      0.3322E-01  0.5268       272.8       289.2       521.5       2675.       6.345      0.5788      0.8005E-01   0.000      0.3039       0.000       0.000       0.000        94.158     43.94       17.66      0.8890      0.2000E+26   48.74      0.6720      0.2000E+26   15.68     -0.3232E-02
   369.8      0.3337E-01  0.5335       260.8       264.4       529.2       2673.       6.380      0.5833      0.7808E-01   0.000      0.3067       0.000       0.000       0.000        94.124     44.12       17.66      0.8984      0.2000E+26   48.96      0.6803      0.2000E+26   16.06     -0.3530E-02
   370.0      0.3351E-01  0.5402       243.6       239.5       537.0       2671.       6.416      0.5877      0.7612E-01   0.000      0.3095       0.000       0.000       0.000        94.089     44.30       17.66      0.9077      0.2000E+26   49.16      0.6886      0.2000E+26   16.66     -0.3958E-02
   370.2      0.3363E-01  0.5469       223.8       220.4       544.4       2670.       6.442      0.5917      0.7414E-01   0.000      0.3124       0.000       0.000       0.000        94.051     44.47       17.66      0.9170      0.2000E+26   49.34      0.6968      0.2000E+26   17.42     -0.4448E-02
   370.4      0.3375E-01  0.5537       204.1       201.3       551.8       2668.       6.468      0.5956      0.7189E-01   0.000      0.3151       0.000       0.000       0.000        94.013     44.65       17.66      0.9262      0.2000E+26   49.51      0.7050      0.2000E+26   18.30     -0.4938E-02
   370.6      0.3383E-01  0.5605       183.9       182.2       559.2       2666.       6.494      0.5994      0.6921E-01   0.000      0.3175       0.000       0.000       0.000        93.975     44.83       17.66      0.9354      0.2000E+26   49.63      0.7131      0.2000E+26   19.49     -0.5439E-02
   370.8      0.3390E-01  0.5672       163.7       163.1       566.6       2664.       6.520      0.6032      0.6639E-01   0.000      0.3198       0.000       0.000       0.000        93.937     45.00       17.66      0.9446      0.2000E+26   49.73      0.7211      0.2000E+26   20.73     -0.5939E-02
   371.0      0.3395E-01  0.5740       142.7       144.0       574.0       2662.       6.546      0.6070      0.6345E-01   0.000      0.3220       0.000       0.000       0.000        93.899     45.17       17.66      0.9537      0.2000E+26   49.81      0.7290      0.2000E+26   22.30     -0.6459E-02
   371.2      0.3400E-01  0.5808       120.7       139.3       581.0       2660.       6.561      0.6114      0.6028E-01   0.000      0.3230       0.000       0.000       0.000        93.857     45.35       17.66      0.9627      0.2000E+26   49.88      0.7368      0.2000E+26   24.38     -0.7007E-02
   371.4      0.3402E-01  0.5876       98.61       134.5       587.9       2658.       6.577      0.6162      0.5700E-01   0.000      0.3234       0.000       0.000       0.000        93.816     45.52       17.66      0.9716      0.2000E+26   49.91      0.7445      0.2000E+26   27.15     -0.7554E-02
   371.6      0.3403E-01  0.5944       75.92       129.8       594.9       2656.       6.592      0.6216      0.5353E-01   0.000      0.3228       0.000       0.000       0.000        93.774     45.69       17.66      0.9805      0.2000E+26   49.92      0.7522      0.2000E+26   31.45     -0.8117E-02
   371.8      0.3402E-01  0.6012       53.03       125.1       601.9       2654.       6.607      0.6272      0.5001E-01   0.000      0.3220       0.000       0.000       0.000        93.733     45.87       17.66      0.9893      0.2000E+26   49.91      0.7597      0.2000E+26   38.06     -0.8684E-02
   372.0      0.3400E-01  0.6080       31.20       120.3       608.9       2652.       6.623      0.6336      0.4624E-01   0.000      0.3197       0.000       0.000       0.000        93.691     46.04       17.66      0.9980      0.2000E+26   49.88      0.7671      0.2000E+26   50.47     -0.9226E-02
   372.2      0.3396E-01  0.6148       0.000       119.4       615.5       2649.       6.628      0.6401      0.4272E-01   0.000      0.3172       0.000       0.000       0.000        93.646     46.21       17.66      0.2000E+26  0.2000E+26   49.82      0.7743      0.2000E+26  0.2000E+26 -0.1000E-01
   372.4      0.3391E-01  0.6216       0.000       118.4       622.0       2647.       6.632      0.6464      0.4182E-01   0.000      0.3118       0.000       0.000       0.000        93.601     46.38       17.66      0.2000E+26  0.2000E+26   49.75      0.7815      0.2000E+26  0.2000E+26 -0.1000E-01
   372.6      0.3385E-01  0.6284       0.000       117.5       628.5       2645.       6.637      0.6524      0.4101E-01   0.000      0.3066       0.000       0.000       0.000        93.556     46.54       17.66      0.2000E+26  0.2000E+26   49.67      0.7885      0.2000E+26  0.2000E+26 -0.1000E-01
   372.8      0.3378E-01  0.6351       0.000       116.6       635.0       2643.       6.642      0.6575      0.4048E-01   0.000      0.3021       0.000       0.000       0.000        93.510     46.71       17.66      0.2000E+26  0.2000E+26   49.56      0.7954      0.2000E+26  0.2000E+26 -0.1000E-01
   373.0      0.3369E-01  0.6419       0.000       115.6       641.6       2640.       6.647      0.6621      0.3997E-01   0.000      0.2979       0.000       0.000       0.000        93.465     46.88       17.66      0.2000E+26  0.2000E+26   49.43      0.8022      0.2000E+26  0.2000E+26 -0.1000E-01
   373.2      0.3359E-01  0.6486       0.000       115.1       647.6       2638.       6.641      0.6661      0.3949E-01   0.000      0.2945       0.000       0.000       0.000        93.417     47.05       17.66      0.2000E+26  0.2000E+26   49.27      0.8088      0.2000E+26  0.2000E+26 -0.1000E-01
   373.4      0.3347E-01  0.6553       0.000       114.7       653.6       2636.       6.636      0.6700      0.3901E-01   0.000      0.2910       0.000       0.000       0.000        93.368     47.21       17.66      0.2000E+26  0.2000E+26   49.11      0.8153      0.2000E+26  0.2000E+26 -0.1000E-01
   373.6      0.3334E-01  0.6620       0.000       114.2       659.6       2633.       6.630      0.6739      0.3853E-01   0.000      0.2876       0.000       0.000       0.000        93.319     47.38       17.66      0.2000E+26  0.2000E+26   48.92      0.8217      0.2000E+26  0.2000E+26 -0.1000E-01
   373.8      0.3320E-01  0.6686       0.000       113.7       665.6       2631.       6.625      0.6777      0.3805E-01   0.000      0.2842       0.000       0.000       0.000        93.271     47.54       17.66      0.2000E+26  0.2000E+26   48.71      0.8279      0.2000E+26  0.2000E+26 -0.1000E-01
   374.0      0.3305E-01  0.6752       0.000       113.2       671.6       2628.       6.619      0.6815      0.3757E-01   0.000      0.2809       0.000       0.000       0.000        93.222     47.71       17.66      0.2000E+26  0.2000E+26   48.49      0.8340      0.2000E+26  0.2000E+26 -0.1000E-01
   374.2      0.3288E-01  0.6818       0.000       112.7       677.1       2626.       6.605      0.6855      0.3709E-01   0.000      0.2774       0.000       0.000       0.000        93.170     47.87       17.66      0.2000E+26  0.2000E+26   48.24      0.8400      0.2000E+26  0.2000E+26 -0.1000E-01
   374.4      0.3271E-01  0.6883       0.000       112.1       682.5       2623.       6.590      0.6895      0.3661E-01   0.000      0.2739       0.000       0.000       0.000        93.118     48.04       17.66      0.2000E+26  0.2000E+26   47.99      0.8458      0.2000E+26  0.2000E+26 -0.1000E-01
   374.6      0.3252E-01  0.6948       0.000       111.6       688.0       2621.       6.575      0.6941      0.3613E-01   0.000      0.2697       0.000       0.000       0.000        93.066     48.20       17.66      0.2000E+26  0.2000E+26   47.71      0.8515      0.2000E+26  0.2000E+26 -0.1000E-01
   374.8      0.3233E-01  0.7013       0.000       111.0       693.4       2618.       6.560      0.6989      0.3565E-01   0.000      0.2655       0.000       0.000       0.000        93.014     48.36       17.66      0.2000E+26  0.2000E+26   47.43      0.8570      0.2000E+26  0.2000E+26 -0.1000E-01
   375.0      0.3212E-01  0.7077       0.000       110.5       698.9       2615.       6.545      0.7043      0.3517E-01   0.000      0.2605       0.000       0.000       0.000        92.961     48.53       17.66      0.2000E+26  0.2000E+26   47.12      0.8624      0.2000E+26  0.2000E+26 -0.1000E-01
   375.2      0.3190E-01  0.7141       0.000       109.9       703.8       2613.       6.523      0.7099      0.3469E-01   0.000      0.2554       0.000       0.000       0.000        92.906     48.69       17.66      0.2000E+26  0.2000E+26   46.81      0.8676      0.2000E+26  0.2000E+26 -0.1000E-01
   375.4      0.3168E-01  0.7204       0.000       109.4       708.7       2610.       6.500      0.7162      0.3421E-01   0.000      0.2496       0.000       0.000       0.000        92.850     48.85       17.66      0.2000E+26  0.2000E+26   46.47      0.8727      0.2000E+26  0.2000E+26 -0.1000E-01
   375.6      0.3151E-01  0.7267       0.000       108.8       713.6       2607.       6.478      0.7224      0.3373E-01   0.000      0.2438       0.000       0.000       0.000        92.795     49.01       17.66      0.2000E+26  0.2000E+26   46.22      0.8777      0.2000E+26  0.2000E+26 -0.1000E-01
   375.8      0.3126E-01  0.7330       0.000       108.2       718.4       2604.       6.456      0.7287      0.3325E-01   0.000      0.2381       0.000       0.000       0.000        92.739     49.17       17.66      0.2000E+26  0.2000E+26   45.86      0.8825      0.2000E+26  0.2000E+26 -0.1000E-01
   376.0      0.3100E-01  0.7392       0.000       107.7       723.3       2602.       6.433      0.7346      0.3277E-01   0.000      0.2327       0.000       0.000       0.000        92.684     49.33       17.66      0.2000E+26  0.2000E+26   45.49      0.8872      0.2000E+26  0.2000E+26 -0.1000E-01
   376.2      0.3074E-01  0.7453       0.000       107.0       727.7       2599.       6.403      0.7400      0.3228E-01   0.000      0.2277       0.000       0.000       0.000        92.625     49.49       17.66      0.2000E+26  0.2000E+26   45.09      0.8918      0.2000E+26  0.2000E+26 -0.1000E-01
   376.4      0.3046E-01  0.7514       0.000       106.4       732.0       2596.       6.373      0.7452      0.3180E-01   0.000      0.2230       0.000       0.000       0.000        92.566     49.65       17.66      0.2000E+26  0.2000E+26   44.69      0.8962      0.2000E+26  0.2000E+26 -0.1000E-01
   376.6      0.3023E-01  0.7575       0.000       105.8       736.3       2593.       6.343      0.7503      0.3132E-01   0.000      0.2183       0.000       0.000       0.000        92.507     49.80       17.66      0.2000E+26  0.2000E+26   44.35      0.9005      0.2000E+26  0.2000E+26 -0.1000E-01
   376.8      0.2994E-01  0.7635       0.000       105.2       740.6       2590.       6.313      0.7554      0.3084E-01   0.000      0.2137       0.000       0.000       0.000        92.448     49.96       17.66      0.2000E+26  0.2000E+26   43.92      0.9046      0.2000E+26  0.2000E+26 -0.1000E-01
   377.0      0.2963E-01  0.7694       0.000       104.6       744.9       2587.       6.283      0.7605      0.3035E-01   0.000      0.2091       0.000       0.000       0.000        92.389     50.12       17.66      0.2000E+26  0.2000E+26   43.47      0.9086      0.2000E+26  0.2000E+26 -0.1000E-01
   377.2      0.2932E-01  0.7752       0.000       104.0       748.7       2584.       6.246      0.7652      0.2986E-01   0.000      0.2050       0.000       0.000       0.000        92.326     50.27       17.66      0.2000E+26  0.2000E+26   43.02      0.9125      0.2000E+26  0.2000E+26 -0.1000E-01
   377.4      0.2900E-01  0.7810       0.000       103.4       752.4       2581.       6.209      0.7697      0.2938E-01   0.000      0.2009       0.000       0.000       0.000        92.264     50.43       17.66      0.2000E+26  0.2000E+26   42.55      0.9163      0.2000E+26  0.2000E+26 -0.1000E-01
   377.6      0.2872E-01  0.7868       0.000       102.7       756.2       2578.       6.171      0.7732      0.2887E-01   0.000      0.1980       0.000       0.000       0.000        92.201     50.58       17.66      0.2000E+26  0.2000E+26   42.14      0.9199      0.2000E+26  0.2000E+26 -0.1000E-01
   377.8      0.2838E-01  0.7925       0.000       102.1       760.0       2575.       6.134      0.7766      0.2837E-01   0.000      0.1950       0.000       0.000       0.000        92.139     50.74       17.66      0.2000E+26  0.2000E+26   41.64      0.9234      0.2000E+26  0.2000E+26 -0.1000E-01
   378.0      0.2804E-01  0.7981       0.000       101.5       763.7       2572.       6.097      0.7800      0.2787E-01   0.000      0.1921       0.000       0.000       0.000        92.076     50.89       17.66      0.2000E+26  0.2000E+26   41.14      0.9268      0.2000E+26  0.2000E+26 -0.1000E-01
   378.2      0.2769E-01  0.8036       0.000       100.8       766.9       2568.       6.053      0.7832      0.2732E-01   0.000      0.1894      0.7226E-04   0.000       0.000        92.011     51.05       17.66      0.2000E+26  0.2000E+26   40.63      0.9301      0.2000E+26  0.2000E+26 -0.1000E-01
   378.4      0.2734E-01  0.8091       0.000       100.2       770.2       2565.       6.009      0.7859      0.2666E-01   0.000      0.1872      0.3124E-03   0.000       0.000        91.945     51.20       17.66      0.2000E+26  0.2000E+26   40.11      0.9332      0.2000E+26  0.2000E+26 -0.1000E-01
   378.6      0.2702E-01  0.8145       0.000       99.52       773.4       2562.       5.965      0.7884      0.2599E-01   0.000      0.1850      0.5780E-03   0.000       0.000        91.879     51.35       17.66      0.2000E+26  0.2000E+26   39.63      0.9363      0.2000E+26  0.2000E+26 -0.1000E-01
   378.8      0.2665E-01  0.8198       0.000       98.87       776.6       2559.       5.921      0.7908      0.2529E-01   0.000      0.1830      0.8762E-03   0.000       0.000        91.813     51.51       17.66      0.2000E+26  0.2000E+26   39.10      0.9392      0.2000E+26  0.2000E+26 -0.1000E-01
   379.0      0.2628E-01  0.8251       0.000       98.22       779.8       2555.       5.877      0.7933      0.2460E-01   0.000      0.1810      0.1174E-02   0.000       0.000        91.748     51.66       17.66      0.2000E+26  0.2000E+26   38.56      0.9420      0.2000E+26  0.2000E+26 -0.1000E-01
   379.2      0.2591E-01  0.8303       0.000       97.55       782.6       2552.       5.828      0.7957      0.2390E-01   0.000      0.1789      0.1473E-02   0.000       0.000        91.678     51.81       17.66      0.2000E+26  0.2000E+26   38.01      0.9447      0.2000E+26  0.2000E+26 -0.1000E-01
   379.4      0.2553E-01  0.8354       0.000       96.89       785.3       2548.       5.779      0.7976      0.2320E-01   0.000      0.1770      0.2168E-02   0.000       0.000        91.609     51.96       17.66      0.2000E+26  0.2000E+26   37.45      0.9473      0.2000E+26  0.2000E+26 -0.1000E-01
   379.6      0.2518E-01  0.8404       0.000       96.22       788.0       2545.       5.729      0.7993      0.2250E-01   0.000      0.1752      0.3022E-02   0.000       0.000        91.540     52.11       17.66      0.2000E+26  0.2000E+26   36.93      0.9499      0.2000E+26  0.2000E+26 -0.1000E-01
   379.8      0.2479E-01  0.8454       0.000       95.55       790.7       2542.       5.680      0.8006      0.2181E-01   0.000      0.1734      0.4116E-02   0.000       0.000        91.471     52.26       17.66      0.2000E+26  0.2000E+26   36.37      0.9523      0.2000E+26  0.2000E+26 -0.1000E-01
   380.0      0.2441E-01  0.8502       0.000       94.89       793.5       2538.       5.631      0.8019      0.2111E-01   0.000      0.1717      0.5250E-02   0.000       0.000        91.402     52.41       17.66      0.2000E+26  0.2000E+26   35.81      0.9546      0.2000E+26  0.2000E+26 -0.1000E-01
   380.2      0.2402E-01  0.8550       0.000       94.21       795.7       2535.       5.577      0.8032      0.2041E-01   0.000      0.1700      0.6384E-02   0.000       0.000        91.330     52.56       17.66      0.2000E+26  0.2000E+26   35.24      0.9568      0.2000E+26  0.2000E+26 -0.1000E-01
   380.4      0.2363E-01  0.8598       0.000       93.54       798.0       2531.       5.523      0.8045      0.1971E-01   0.000      0.1682      0.7519E-02   0.000       0.000        91.257     52.71       17.66      0.2000E+26  0.2000E+26   34.66      0.9589      0.2000E+26  0.2000E+26 -0.1000E-01
   380.6      0.2325E-01  0.8644       0.000       92.86       800.3       2528.       5.469      0.8058      0.1901E-01   0.000      0.1665      0.8653E-02   0.000       0.000        91.185     52.86       17.66      0.2000E+26  0.2000E+26   34.11      0.9610      0.2000E+26  0.2000E+26 -0.1000E-01
   380.8      0.2285E-01  0.8690       0.000       92.18       802.6       2524.       5.415      0.8069      0.1838E-01   0.000      0.1649      0.9846E-02   0.000       0.000        91.112     53.01       17.66      0.2000E+26  0.2000E+26   33.53      0.9629      0.2000E+26  0.2000E+26 -0.1000E-01
   381.0      0.2246E-01  0.8735       0.000       91.51       804.8       2521.       5.361      0.8073      0.1793E-01   0.000      0.1635      0.1120E-01   0.000       0.000        91.040     53.16       17.66      0.2000E+26  0.2000E+26   32.95      0.9648      0.2000E+26  0.2000E+26 -0.1000E-01
   381.2      0.2206E-01  0.8779       0.000       90.83       806.7       2517.       5.300      0.8077      0.1749E-01   0.000      0.1623      0.1256E-01   0.000       0.000        90.964     53.30       17.66      0.2000E+26  0.2000E+26   32.36      0.9666      0.2000E+26  0.2000E+26 -0.1000E-01
   381.4      0.2166E-01  0.8822       0.000       90.15       808.6       2513.       5.238      0.8080      0.1708E-01   0.000      0.1610      0.1395E-01   0.000       0.000        90.888     53.45       17.66      0.2000E+26  0.2000E+26   31.77      0.9683      0.2000E+26  0.2000E+26 -0.1000E-01
   381.6      0.2127E-01  0.8865       0.000       89.47       810.4       2510.       5.176      0.8082      0.1667E-01   0.000      0.1598      0.1534E-01   0.000       0.000        90.813     53.59       17.66      0.2000E+26  0.2000E+26   31.20      0.2000E+26  0.2000E+26  0.2000E+26 -0.1000E-01
   381.8      0.2086E-01  0.8906       0.000       88.79       812.3       2506.       5.115      0.8085      0.1626E-01   0.000      0.1585      0.1673E-01   0.000       0.000        90.737     53.74       17.66      0.2000E+26  0.2000E+26   30.61      0.9715      0.2000E+26  0.2000E+26 -0.1000E-01
   382.0      0.2010E-01  0.8947       0.000       88.11       814.2       2502.       5.053      0.2000E+26  0.2000E+26  0.2000E+26  0.2000E+26  0.2000E+26  0.2000E+26  0.2000E+26    90.737    0.2000E+26  0.2000E+26  0.2000E+26  0.2000E+26   29.49      0.9730      0.2000E+26  0.2000E+26 -0.1000E-01
   382.2      0.1937E-01  0.8985       0.000       87.42       815.6       2498.       4.974      0.2000E+26  0.2000E+26  0.2000E+26  0.2000E+26  0.2000E+26  0.2000E+26  0.2000E+26    90.737    0.2000E+26  0.2000E+26  0.2000E+26  0.2000E+26   28.41      0.9745      0.2000E+26  0.2000E+26 -0.1000E-01
   382.4      0.1866E-01  0.9023       0.000       86.72       817.1       2494.       4.895      0.2000E+26  0.2000E+26  0.2000E+26  0.2000E+26  0.2000E+26  0.2000E+26  0.2000E+26    90.737    0.2000E+26  0.2000E+26  0.2000E+26  0.2000E+26   27.37      0.9758      0.2000E+26  0.2000E+26 -0.1000E-01
   382.6      0.1798E-01  0.9059       0.000       86.03       818.6       2490.       4.815      0.2000E+26  0.2000E+26  0.2000E+26  0.2000E+26  0.2000E+26  0.2000E+26  0.2000E+26    90.737    0.2000E+26  0.2000E+26  0.2000E+26  0.2000E+26   26.37      0.9771      0.2000E+26  0.2000E+26 -0.1000E-01
   382.8      0.1732E-01  0.9093       0.000       85.34       820.1       2486.       4.736      0.2000E+26  0.2000E+26  0.2000E+26  0.2000E+26  0.2000E+26  0.2000E+26  0.2000E+26    90.737    0.2000E+26  0.2000E+26  0.2000E+26  0.2000E+26   25.41      0.9784      0.2000E+26  0.2000E+26 -0.1000E-01
   383.0      0.1669E-01  0.9127       0.000       84.65       821.6       2483.       4.657      0.2000E+26  0.2000E+26  0.2000E+26  0.2000E+26  0.2000E+26  0.2000E+26  0.2000E+26    90.737    0.2000E+26  0.2000E+26  0.2000E+26  0.2000E+26   24.48      0.9796      0.2000E+26  0.2000E+26 -0.1000E-01
   383.2      0.1608E-01  0.9159       0.000       83.95       822.7       2478.       4.572      0.2000E+26  0.2000E+26  0.2000E+26  0.2000E+26  0.2000E+26  0.2000E+26  0.2000E+26    90.737    0.2000E+26  0.2000E+26  0.2000E+26  0.2000E+26   23.59      0.9807      0.2000E+26  0.2000E+26 -0.1000E-01
   383.4      0.1549E-01  0.9190       0.000       83.25       823.9       2474.       4.487      0.2000E+26  0.2000E+26  0.2000E+26  0.2000E+26  0.2000E+26  0.2000E+26  0.2000E+26    90.737    0.2000E+26  0.2000E+26  0.2000E+26  0.2000E+26   22.72      0.9818      0.2000E+26  0.2000E+26 -0.1000E-01
   383.6      0.1492E-01  0.9220       0.000       82.55       825.0       2470.       4.402      0.2000E+26  0.2000E+26  0.2000E+26  0.2000E+26  0.2000E+26  0.2000E+26  0.2000E+26    90.737    0.2000E+26  0.2000E+26  0.2000E+26  0.2000E+26   21.89      0.9828      0.2000E+26  0.2000E+26 -0.1000E-01
   383.8      0.1437E-01  0.9248       0.000       81.85       826.2       2466.       4.317      0.2000E+26  0.2000E+26  0.2000E+26  0.2000E+26  0.2000E+26  0.2000E+26  0.2000E+26    90.737    0.2000E+26  0.2000E+26  0.2000E+26  0.2000E+26   21.09      0.9838      0.2000E+26  0.2000E+26 -0.1000E-01
   384.0      0.1385E-01  0.9276       0.000       81.16       827.3       2462.       4.232      0.2000E+26  0.2000E+26  0.2000E+26  0.2000E+26  0.2000E+26  0.2000E+26  0.2000E+26    90.737    0.2000E+26  0.2000E+26  0.2000E+26  0.2000E+26   20.32      0.9847      0.2000E+26  0.2000E+26 -0.1000E-01
   384.2      0.1334E-01  0.9303       0.000       80.46       828.2       2457.       4.149      0.2000E+26  0.2000E+26  0.2000E+26  0.2000E+26  0.2000E+26  0.2000E+26  0.2000E+26    90.737    0.2000E+26  0.2000E+26  0.2000E+26  0.2000E+26   19.57      0.9856      0.2000E+26  0.2000E+26 -0.1000E-01
   384.4      0.1285E-01  0.9328       0.000       79.77       829.1       2453.       4.066      0.2000E+26  0.2000E+26  0.2000E+26  0.2000E+26  0.2000E+26  0.2000E+26  0.2000E+26    90.737    0.2000E+26  0.2000E+26  0.2000E+26  0.2000E+26   18.86      0.9864      0.2000E+26  0.2000E+26 -0.1000E-01
   384.6      0.1238E-01  0.9353       0.000       79.07       830.0       2449.       3.983      0.2000E+26  0.2000E+26  0.2000E+26  0.2000E+26  0.2000E+26  0.2000E+26  0.2000E+26    90.737    0.2000E+26  0.2000E+26  0.2000E+26  0.2000E+26   18.16      0.9872      0.2000E+26  0.2000E+26 -0.1000E-01
   384.8      0.1193E-01  0.9377       0.000       78.38       830.9       2445.       3.900      0.2000E+26  0.2000E+26  0.2000E+26  0.2000E+26  0.2000E+26  0.2000E+26  0.2000E+26    90.737    0.2000E+26  0.2000E+26  0.2000E+26  0.2000E+26   17.50      0.9879      0.2000E+26  0.2000E+26 -0.1000E-01
   385.0      0.1149E-01  0.9400       0.000       77.68       831.7       2440.       3.817      0.2000E+26  0.2000E+26  0.2000E+26  0.2000E+26  0.2000E+26  0.2000E+26  0.2000E+26    90.737    0.2000E+26  0.2000E+26  0.2000E+26  0.2000E+26   16.86      0.9886      0.2000E+26  0.2000E+26 -0.1000E-01
   385.2      0.1107E-01  0.9422       0.000       77.00       832.4       2436.       3.739      0.2000E+26  0.2000E+26  0.2000E+26  0.2000E+26  0.2000E+26  0.2000E+26  0.2000E+26    90.737    0.2000E+26  0.2000E+26  0.2000E+26  0.2000E+26   16.24      0.9893      0.2000E+26  0.2000E+26 -0.1000E-01
   385.4      0.1067E-01  0.9444       0.000       76.32       833.1       2431.       3.662      0.2000E+26  0.2000E+26  0.2000E+26  0.2000E+26  0.2000E+26  0.2000E+26  0.2000E+26    90.737    0.2000E+26  0.2000E+26  0.2000E+26  0.2000E+26   15.66      0.9900      0.2000E+26  0.2000E+26 -0.1000E-01
   385.6      0.1028E-01  0.9464       0.000       75.64       833.7       2427.       3.584      0.2000E+26  0.2000E+26  0.2000E+26  0.2000E+26  0.2000E+26  0.2000E+26  0.2000E+26    90.737    0.2000E+26  0.2000E+26  0.2000E+26  0.2000E+26   15.09      0.9906      0.2000E+26  0.2000E+26 -0.1000E-01
   385.8      0.9920E-02  0.9484       0.000       74.96       834.4       2422.       3.506      0.2000E+26  0.2000E+26  0.2000E+26  0.2000E+26  0.2000E+26  0.2000E+26  0.2000E+26    90.737    0.2000E+26  0.2000E+26  0.2000E+26  0.2000E+26   14.55      0.9911      0.2000E+26  0.2000E+26 -0.1000E-01
   386.0      0.9567E-02  0.9503       0.000       74.27       835.1       2418.       3.428      0.2000E+26  0.2000E+26  0.2000E+26  0.2000E+26  0.2000E+26  0.2000E+26  0.2000E+26    90.737    0.2000E+26  0.2000E+26  0.2000E+26  0.2000E+26   14.04      0.9917      0.2000E+26  0.2000E+26 -0.1000E-01
   386.2      0.9227E-02  0.9522       0.000       73.61       835.5       2413.       3.356      0.2000E+26  0.2000E+26  0.2000E+26  0.2000E+26  0.2000E+26  0.2000E+26  0.2000E+26    90.737    0.2000E+26  0.2000E+26  0.2000E+26  0.2000E+26   13.54      0.9922      0.2000E+26  0.2000E+26 -0.1000E-01
   386.4      0.8898E-02  0.9539       0.000       72.95       836.0       2409.       3.284      0.2000E+26  0.2000E+26  0.2000E+26  0.2000E+26  0.2000E+26  0.2000E+26  0.2000E+26    90.737    0.2000E+26  0.2000E+26  0.2000E+26  0.2000E+26   13.05      0.9927      0.2000E+26  0.2000E+26 -0.1000E-01
   386.6      0.8571E-02  0.9556       0.000       72.28       836.5       2404.       3.213      0.2000E+26  0.2000E+26  0.2000E+26  0.2000E+26  0.2000E+26  0.2000E+26  0.2000E+26    90.737    0.2000E+26  0.2000E+26  0.2000E+26  0.2000E+26   12.58      0.9931      0.2000E+26  0.2000E+26 -0.1000E-01
   386.8      0.8266E-02  0.9573       0.000       71.62       837.0       2400.       3.141      0.2000E+26  0.2000E+26  0.2000E+26  0.2000E+26  0.2000E+26  0.2000E+26  0.2000E+26    90.737    0.2000E+26  0.2000E+26  0.2000E+26  0.2000E+26   12.13      0.9935      0.2000E+26  0.2000E+26 -0.1000E-01
   387.0      0.7970E-02  0.9589       0.000       70.95       837.5       2395.       3.069      0.2000E+26  0.2000E+26  0.2000E+26  0.2000E+26  0.2000E+26  0.2000E+26  0.2000E+26    90.737    0.2000E+26  0.2000E+26  0.2000E+26  0.2000E+26   11.69      0.9940      0.2000E+26  0.2000E+26 -0.1000E-01
   387.2      0.7685E-02  0.9604       0.000       70.31       837.9       2391.       3.004      0.2000E+26  0.2000E+26  0.2000E+26  0.2000E+26  0.2000E+26  0.2000E+26  0.2000E+26    90.737    0.2000E+26  0.2000E+26  0.2000E+26  0.2000E+26   11.27      0.9943      0.2000E+26  0.2000E+26 -0.1000E-01
   387.4      0.7410E-02  0.9619       0.000       69.67       838.2       2386.       2.939      0.2000E+26  0.2000E+26  0.2000E+26  0.2000E+26  0.2000E+26  0.2000E+26  0.2000E+26    90.737    0.2000E+26  0.2000E+26  0.2000E+26  0.2000E+26   10.87      0.9947      0.2000E+26  0.2000E+26 -0.1000E-01
   387.6      0.7135E-02  0.9633       0.000       69.03       838.6       2382.       2.873      0.2000E+26  0.2000E+26  0.2000E+26  0.2000E+26  0.2000E+26  0.2000E+26  0.2000E+26    90.737    0.2000E+26  0.2000E+26  0.2000E+26  0.2000E+26   10.47      0.9950      0.2000E+26  0.2000E+26 -0.1000E-01
   387.8      0.6879E-02  0.9647       0.000       68.39       839.0       2377.       2.808      0.2000E+26  0.2000E+26  0.2000E+26  0.2000E+26  0.2000E+26  0.2000E+26  0.2000E+26    90.737    0.2000E+26  0.2000E+26  0.2000E+26  0.2000E+26   10.09      0.9954      0.2000E+26  0.2000E+26 -0.1000E-01
   388.0      0.6632E-02  0.9660       0.000       67.74       839.3       2372.       2.743      0.2000E+26  0.2000E+26  0.2000E+26  0.2000E+26  0.2000E+26  0.2000E+26  0.2000E+26    90.737    0.2000E+26  0.2000E+26  0.2000E+26  0.2000E+26   9.730      0.9957      0.2000E+26  0.2000E+26 -0.1000E-01
   388.2      0.6393E-02  0.9673       0.000       67.12       839.6       2368.       2.684      0.2000E+26  0.2000E+26  0.2000E+26  0.2000E+26  0.2000E+26  0.2000E+26  0.2000E+26    90.737    0.2000E+26  0.2000E+26  0.2000E+26  0.2000E+26   9.380      0.9959      0.2000E+26  0.2000E+26 -0.1000E-01
   388.4      0.6163E-02  0.9686       0.000       66.51       839.9       2363.       2.625      0.2000E+26  0.2000E+26  0.2000E+26  0.2000E+26  0.2000E+26  0.2000E+26  0.2000E+26    90.737    0.2000E+26  0.2000E+26  0.2000E+26  0.2000E+26   9.042      0.9962      0.2000E+26  0.2000E+26 -0.1000E-01
   388.6      0.5930E-02  0.9697       0.000       65.89       840.1       2358.       2.566      0.2000E+26  0.2000E+26  0.2000E+26  0.2000E+26  0.2000E+26  0.2000E+26  0.2000E+26    90.737    0.2000E+26  0.2000E+26  0.2000E+26  0.2000E+26   8.700      0.2000E+26  0.2000E+26  0.2000E+26 -0.1000E-01
   388.8      0.5714E-02  0.9709       0.000       65.27       840.4       2354.       2.507      0.2000E+26  0.2000E+26  0.2000E+26  0.2000E+26  0.2000E+26  0.2000E+26  0.2000E+26    90.737    0.2000E+26  0.2000E+26  0.2000E+26  0.2000E+26   8.383      0.2000E+26  0.2000E+26  0.2000E+26 -0.1000E-01
   389.0      0.5509E-02  0.9720       0.000       64.65       840.7       2349.       2.448      0.2000E+26  0.2000E+26  0.2000E+26  0.2000E+26  0.2000E+26  0.2000E+26  0.2000E+26    90.737    0.2000E+26  0.2000E+26  0.2000E+26  0.2000E+26   8.082      0.2000E+26  0.2000E+26  0.2000E+26 -0.1000E-01
   389.2      0.5310E-02  0.9730       0.000       64.06       840.9       2345.       2.395      0.2000E+26  0.2000E+26  0.2000E+26  0.2000E+26  0.2000E+26  0.2000E+26  0.2000E+26    90.737    0.2000E+26  0.2000E+26  0.2000E+26  0.2000E+26   7.791      0.2000E+26  0.2000E+26  0.2000E+26 -0.1000E-01
   389.4      0.5119E-02  0.9741       0.000       63.46       841.1       2340.       2.342      0.2000E+26  0.2000E+26  0.2000E+26  0.2000E+26  0.2000E+26  0.2000E+26  0.2000E+26    90.737    0.2000E+26  0.2000E+26  0.2000E+26  0.2000E+26   7.510      0.2000E+26  0.2000E+26  0.2000E+26 -0.1000E-01
   389.6      0.4927E-02  0.9751       0.000       62.87       841.3       2335.       2.290      0.2000E+26  0.2000E+26  0.2000E+26  0.2000E+26  0.2000E+26  0.2000E+26  0.2000E+26    90.737    0.2000E+26  0.2000E+26  0.2000E+26  0.2000E+26   7.228      0.2000E+26  0.2000E+26  0.2000E+26 -0.1000E-01
   389.8      0.4749E-02  0.9760       0.000       62.28       841.5       2331.       2.237      0.2000E+26  0.2000E+26  0.2000E+26  0.2000E+26  0.2000E+26  0.2000E+26  0.2000E+26    90.737    0.2000E+26  0.2000E+26  0.2000E+26  0.2000E+26   6.967      0.2000E+26  0.2000E+26  0.2000E+26 -0.1000E-01
   390.0      0.4578E-02  0.9769       0.000       61.69       841.6       2326.       2.184      0.2000E+26  0.2000E+26  0.2000E+26  0.2000E+26  0.2000E+26  0.2000E+26  0.2000E+26    90.737    0.2000E+26  0.2000E+26  0.2000E+26  0.2000E+26   6.716      0.2000E+26  0.2000E+26  0.2000E+26 -0.1000E-01
   390.2      0.4412E-02  0.9778       0.000       61.12       841.8       2321.       2.137      0.2000E+26  0.2000E+26  0.2000E+26  0.2000E+26  0.2000E+26  0.2000E+26  0.2000E+26    90.737    0.2000E+26  0.2000E+26  0.2000E+26  0.2000E+26   6.473      0.2000E+26  0.2000E+26  0.2000E+26 -0.1000E-01
   390.4      0.4253E-02  0.9787       0.000       60.55       841.9       2317.       2.090      0.2000E+26  0.2000E+26  0.2000E+26  0.2000E+26  0.2000E+26  0.2000E+26  0.2000E+26    90.737    0.2000E+26  0.2000E+26  0.2000E+26  0.2000E+26   6.239      0.2000E+26  0.2000E+26  0.2000E+26 -0.1000E-01
   390.6      0.4092E-02  0.9795       0.000       59.99       842.1       2312.       2.042      0.2000E+26  0.2000E+26  0.2000E+26  0.2000E+26  0.2000E+26  0.2000E+26  0.2000E+26    90.737    0.2000E+26  0.2000E+26  0.2000E+26  0.2000E+26   6.003      0.2000E+26  0.2000E+26  0.2000E+26 -0.1000E-01
   390.8      0.3944E-02  0.9803       0.000       59.42       842.2       2308.       1.995      0.2000E+26  0.2000E+26  0.2000E+26  0.2000E+26  0.2000E+26  0.2000E+26  0.2000E+26    90.737    0.2000E+26  0.2000E+26  0.2000E+26  0.2000E+26   5.786      0.2000E+26  0.2000E+26  0.2000E+26 -0.1000E-01
   391.0      0.3801E-02  0.9810       0.000       58.85       842.4       2303.       1.948      0.2000E+26  0.2000E+26  0.2000E+26  0.2000E+26  0.2000E+26  0.2000E+26  0.2000E+26    90.737    0.2000E+26  0.2000E+26  0.2000E+26  0.2000E+26   5.576      0.2000E+26  0.2000E+26  0.2000E+26 -0.1000E-01
   391.2      0.3663E-02  0.9818       0.000       58.31       842.5       2298.       1.906      0.2000E+26  0.2000E+26  0.2000E+26  0.2000E+26  0.2000E+26  0.2000E+26  0.2000E+26    90.737    0.2000E+26  0.2000E+26  0.2000E+26  0.2000E+26   5.374      0.2000E+26  0.2000E+26  0.2000E+26 -0.1000E-01
   391.4      0.3530E-02  0.9825       0.000       57.77       842.6       2294.       1.864      0.2000E+26  0.2000E+26  0.2000E+26  0.2000E+26  0.2000E+26  0.2000E+26  0.2000E+26    90.737    0.2000E+26  0.2000E+26  0.2000E+26  0.2000E+26   5.178      0.2000E+26  0.2000E+26  0.2000E+26 -0.1000E-01
   391.6      0.3395E-02  0.9831       0.000       57.23       842.7       2289.       1.822      0.2000E+26  0.2000E+26  0.2000E+26  0.2000E+26  0.2000E+26  0.2000E+26  0.2000E+26    90.737    0.2000E+26  0.2000E+26  0.2000E+26  0.2000E+26   4.981      0.2000E+26  0.2000E+26  0.2000E+26 -0.1000E-01
   391.8      0.3271E-02  0.9838       0.000       56.69       842.8       2285.       1.780      0.2000E+26  0.2000E+26  0.2000E+26  0.2000E+26  0.2000E+26  0.2000E+26  0.2000E+26    90.737    0.2000E+26  0.2000E+26  0.2000E+26  0.2000E+26   4.800      0.2000E+26  0.2000E+26  0.2000E+26 -0.1000E-01
   392.0      0.3152E-02  0.9844       0.000       56.15       842.9       2280.       1.738      0.2000E+26  0.2000E+26  0.2000E+26  0.2000E+26  0.2000E+26  0.2000E+26  0.2000E+26    90.737    0.2000E+26  0.2000E+26  0.2000E+26  0.2000E+26   4.625      0.2000E+26  0.2000E+26  0.2000E+26 -0.1000E-01
   392.2      0.3037E-02  0.9850       0.000       55.64       843.0       2275.       1.701      0.2000E+26  0.2000E+26  0.2000E+26  0.2000E+26  0.2000E+26  0.2000E+26  0.2000E+26    90.737    0.2000E+26  0.2000E+26  0.2000E+26  0.2000E+26   4.456      0.2000E+26  0.2000E+26  0.2000E+26 -0.1000E-01
   392.4      0.2926E-02  0.9856       0.000       55.13       843.1       2271.       1.663      0.2000E+26  0.2000E+26  0.2000E+26  0.2000E+26  0.2000E+26  0.2000E+26  0.2000E+26    90.737    0.2000E+26  0.2000E+26  0.2000E+26  0.2000E+26   4.293      0.2000E+26  0.2000E+26  0.2000E+26 -0.1000E-01
   392.6      0.2814E-02  0.9862       0.000       54.61       843.1       2266.       1.626      0.2000E+26  0.2000E+26  0.2000E+26  0.2000E+26  0.2000E+26  0.2000E+26  0.2000E+26    90.737    0.2000E+26  0.2000E+26  0.2000E+26  0.2000E+26   4.128      0.2000E+26  0.2000E+26  0.2000E+26 -0.1000E-01
   392.8      0.2711E-02  0.9867       0.000       54.10       843.2       2262.       1.589      0.2000E+26  0.2000E+26  0.2000E+26  0.2000E+26  0.2000E+26  0.2000E+26  0.2000E+26    90.737    0.2000E+26  0.2000E+26  0.2000E+26  0.2000E+26   3.977      0.2000E+26  0.2000E+26  0.2000E+26 -0.1000E-01
   393.0      0.2611E-02  0.9872       0.000       53.59       843.3       2257.       1.551      0.2000E+26  0.2000E+26  0.2000E+26  0.2000E+26  0.2000E+26  0.2000E+26  0.2000E+26    90.737    0.2000E+26  0.2000E+26  0.2000E+26  0.2000E+26   3.831      0.2000E+26  0.2000E+26  0.2000E+26 -0.1000E-01
   393.2      0.2515E-02  0.9877       0.000       53.10       843.3       2253.       1.518      0.2000E+26  0.2000E+26  0.2000E+26  0.2000E+26  0.2000E+26  0.2000E+26  0.2000E+26    90.737    0.2000E+26  0.2000E+26  0.2000E+26  0.2000E+26   3.690      0.2000E+26  0.2000E+26  0.2000E+26 -0.1000E-01
   393.4      0.2423E-02  0.9882       0.000       52.61       843.4       2248.       1.485      0.2000E+26  0.2000E+26  0.2000E+26  0.2000E+26  0.2000E+26  0.2000E+26  0.2000E+26    90.737    0.2000E+26  0.2000E+26  0.2000E+26  0.2000E+26   3.554      0.2000E+26  0.2000E+26  0.2000E+26 -0.1000E-01
   393.6      0.2329E-02  0.9887       0.000       52.13       843.5       2244.       1.452      0.2000E+26  0.2000E+26  0.2000E+26  0.2000E+26  0.2000E+26  0.2000E+26  0.2000E+26    90.737    0.2000E+26  0.2000E+26  0.2000E+26  0.2000E+26   3.416      0.2000E+26  0.2000E+26  0.2000E+26 -0.1000E-01
   393.8      0.2243E-02  0.9891       0.000       51.64       843.5       2239.       1.419      0.2000E+26  0.2000E+26  0.2000E+26  0.2000E+26  0.2000E+26  0.2000E+26  0.2000E+26    90.737    0.2000E+26  0.2000E+26  0.2000E+26  0.2000E+26   3.290      0.2000E+26  0.2000E+26  0.2000E+26 -0.1000E-01
   394.0      0.2160E-02  0.9896       0.000       51.15       843.6       2235.       1.386      0.2000E+26  0.2000E+26  0.2000E+26  0.2000E+26  0.2000E+26  0.2000E+26  0.2000E+26    90.737    0.2000E+26  0.2000E+26  0.2000E+26  0.2000E+26   3.169      0.2000E+26  0.2000E+26  0.2000E+26 -0.1000E-01
   394.2      0.2080E-02  0.9900       0.000       50.69       843.6       2230.       1.357      0.2000E+26  0.2000E+26  0.2000E+26  0.2000E+26  0.2000E+26  0.2000E+26  0.2000E+26    90.737    0.2000E+26  0.2000E+26  0.2000E+26  0.2000E+26   3.051      0.2000E+26  0.2000E+26  0.2000E+26 -0.1000E-01
   394.4      0.2003E-02  0.9904       0.000       50.23       843.7       2226.       1.327      0.2000E+26  0.2000E+26  0.2000E+26  0.2000E+26  0.2000E+26  0.2000E+26  0.2000E+26    90.737    0.2000E+26  0.2000E+26  0.2000E+26  0.2000E+26   2.938      0.2000E+26  0.2000E+26  0.2000E+26 -0.1000E-01
   394.6      0.1926E-02  0.9908       0.000       49.77       843.7       2221.       1.298      0.2000E+26  0.2000E+26  0.2000E+26  0.2000E+26  0.2000E+26  0.2000E+26  0.2000E+26    90.737    0.2000E+26  0.2000E+26  0.2000E+26  0.2000E+26   2.825      0.2000E+26  0.2000E+26  0.2000E+26 -0.1000E-01
   394.8      0.1854E-02  0.9911       0.000       49.31       843.7       2217.       1.269      0.2000E+26  0.2000E+26  0.2000E+26  0.2000E+26  0.2000E+26  0.2000E+26  0.2000E+26    90.737    0.2000E+26  0.2000E+26  0.2000E+26  0.2000E+26   2.720      0.2000E+26  0.2000E+26  0.2000E+26 -0.1000E-01
   395.0      0.1785E-02  0.9915       0.000       48.85       843.8       2212.       1.239      0.2000E+26  0.2000E+26  0.2000E+26  0.2000E+26  0.2000E+26  0.2000E+26  0.2000E+26    90.737    0.2000E+26  0.2000E+26  0.2000E+26  0.2000E+26   2.619      0.2000E+26  0.2000E+26  0.2000E+26 -0.1000E-01
   395.2      0.1718E-02  0.9918       0.000       48.41       843.8       2208.       1.213      0.2000E+26  0.2000E+26  0.2000E+26  0.2000E+26  0.2000E+26  0.2000E+26  0.2000E+26    90.737    0.2000E+26  0.2000E+26  0.2000E+26  0.2000E+26   2.521      0.2000E+26  0.2000E+26  0.2000E+26 -0.1000E-01
   395.4      0.1654E-02  0.9922       0.000       47.97       843.9       2204.       1.187      0.2000E+26  0.2000E+26  0.2000E+26  0.2000E+26  0.2000E+26  0.2000E+26  0.2000E+26    90.737    0.2000E+26  0.2000E+26  0.2000E+26  0.2000E+26   2.427      0.2000E+26  0.2000E+26  0.2000E+26 -0.1000E-01
   395.6      0.1592E-02  0.9925       0.000       47.53       843.9       2199.       1.161      0.2000E+26  0.2000E+26  0.2000E+26  0.2000E+26  0.2000E+26  0.2000E+26  0.2000E+26    90.737    0.2000E+26  0.2000E+26  0.2000E+26  0.2000E+26   2.336      0.2000E+26  0.2000E+26  0.2000E+26 -0.1000E-01
   395.8      0.1532E-02  0.9928       0.000       47.10       843.9       2195.       1.135      0.2000E+26  0.2000E+26  0.2000E+26  0.2000E+26  0.2000E+26  0.2000E+26  0.2000E+26    90.737    0.2000E+26  0.2000E+26  0.2000E+26  0.2000E+26   2.248      0.2000E+26  0.2000E+26  0.2000E+26 -0.1000E-01
   396.0      0.1473E-02  0.9931       0.000       46.66       844.0       2190.       1.109      0.2000E+26  0.2000E+26  0.2000E+26  0.2000E+26  0.2000E+26  0.2000E+26  0.2000E+26    90.737    0.2000E+26  0.2000E+26  0.2000E+26  0.2000E+26   2.161      0.2000E+26  0.2000E+26  0.2000E+26 -0.1000E-01
   396.2      0.1416E-02  0.9934       0.000       46.25       844.0       2186.       1.086      0.2000E+26  0.2000E+26  0.2000E+26  0.2000E+26  0.2000E+26  0.2000E+26  0.2000E+26    90.737    0.2000E+26  0.2000E+26  0.2000E+26  0.2000E+26   2.077      0.2000E+26  0.2000E+26  0.2000E+26 -0.1000E-01
   396.4      0.1361E-02  0.9937       0.000       45.83       844.0       2182.       1.063      0.2000E+26  0.2000E+26  0.2000E+26  0.2000E+26  0.2000E+26  0.2000E+26  0.2000E+26    90.737    0.2000E+26  0.2000E+26  0.2000E+26  0.2000E+26   1.997      0.2000E+26  0.2000E+26  0.2000E+26 -0.1000E-01
   396.6      0.1309E-02  0.9939       0.000       45.42       844.0       2177.       1.040      0.2000E+26  0.2000E+26  0.2000E+26  0.2000E+26  0.2000E+26  0.2000E+26  0.2000E+26    90.737    0.2000E+26  0.2000E+26  0.2000E+26  0.2000E+26   1.920      0.2000E+26  0.2000E+26  0.2000E+26 -0.1000E-01
   396.8      0.1258E-02  0.9942       0.000       45.01       844.1       2173.       1.017      0.2000E+26  0.2000E+26  0.2000E+26  0.2000E+26  0.2000E+26  0.2000E+26  0.2000E+26    90.737    0.2000E+26  0.2000E+26  0.2000E+26  0.2000E+26   1.845      0.2000E+26  0.2000E+26  0.2000E+26 -0.1000E-01
   397.0      0.1209E-02  0.9944       0.000       44.59       844.1       2169.      0.9942      0.2000E+26  0.2000E+26  0.2000E+26  0.2000E+26  0.2000E+26  0.2000E+26  0.2000E+26    90.737    0.2000E+26  0.2000E+26  0.2000E+26  0.2000E+26   1.774      0.2000E+26  0.2000E+26  0.2000E+26 -0.1000E-01
   397.2      0.1162E-02  0.9946       0.000       44.19       844.1       2164.      0.9672      0.2000E+26  0.2000E+26  0.2000E+26  0.2000E+26  0.2000E+26  0.2000E+26  0.2000E+26    90.737    0.2000E+26  0.2000E+26  0.2000E+26  0.2000E+26   1.705      0.2000E+26  0.2000E+26  0.2000E+26 -0.1000E-01
   397.4      0.1117E-02  0.9949       0.000       43.79       844.1       2160.      0.9402      0.2000E+26  0.2000E+26  0.2000E+26  0.2000E+26  0.2000E+26  0.2000E+26  0.2000E+26    90.737    0.2000E+26  0.2000E+26  0.2000E+26  0.2000E+26   1.638      0.2000E+26  0.2000E+26  0.2000E+26 -0.1000E-01
   397.6      0.1073E-02  0.9951       0.000       43.40       844.1       2156.      0.9132      0.2000E+26  0.2000E+26  0.2000E+26  0.2000E+26  0.2000E+26  0.2000E+26  0.2000E+26    90.737    0.2000E+26  0.2000E+26  0.2000E+26  0.2000E+26   1.575      0.2000E+26  0.2000E+26  0.2000E+26 -0.1000E-01
   397.8       0.000      0.9950       0.000       43.00       844.1       2151.      0.8863      0.2000E+26  0.2000E+26  0.2000E+26  0.2000E+26  0.2000E+26  0.2000E+26  0.2000E+26    90.737    0.2000E+26  0.2000E+26  0.2000E+26  0.2000E+26   0.000      0.2000E+26  0.2000E+26  0.2000E+26 -0.1000E-01
 
