 Legend
 2020-12-23 18-29-03 "4L9.1/9.5" ||| Режим: #1 : n=4000 об/мин; ^^^альфа=2 на номинале^^^
 Файл : 4_valves.tpl
 
.DSL4N1   Rus   PistMove   Step=0.20   Stroke=   95.00    
   ПАРАМЕТРЫ ВПРЫСКА, СМЕСЕОБРАЗОВАНИЯ, ТЕПЛОВЫДЕЛЕНИЯ И САЖЕОБРАЗОВАНИЯ 
 Comment
 Fi          Угол поворота коленчатого вала, [град.]                     
 dx/dFi      Скорость тепловыделения [1/град.]                           
 x           Доля выделившегося тепла                                    
 Uo          Скорость истечения топлива, [м/c]                           
 Pвпр        Давление перед соплами распылителя, [бар]                   
 NOx         Концентрация оксидов азота, [ppm]                           
 T_burn      Температура в зоне сгорания,[K]                             
 Soot        Концентрация сажевых частиц в цилиндре, [г/м3]              
 S_обол      Доля топлива в оболочке струи и пристеночного потока        
 S_ядр.C     Доля топлива в ядре свободной струи                         
 S_фронт     Доля топлива во фронте свободной струи                      
 S_ядр.W     Доля топлива в ядре пристеночного потока                    
 S_яд.Ws     Доля топлива в зонах пересечени пристеночных потоков        
 S_крыш      Доля топлива осевшего на поверхности крышки цилиндра        
 S_цил       Доля топлива осевшего на поверхности зеркала цилиндра       
 P_pist      Позиция поршня относительно НМТ, [мм]                       
 Spray_tip   Длина свободной струи без учета вихря, мм                   
 Spray_ang   Угол раскрытия внешнего контура струи, град.                
 Evap_zon    Доля испарившегося топлива в зонной модели                  
 Evap_1p     Доля испарившегося топлива (для порции #1)                  
 HRR         Скорость тепловыделения, [Дж/град.]                         
 Ksi_b       Степень эффективности использования воздушного заряда       
 I_LW_1p     Интеграл Livengood-Wu для порц. №1 (модиф. уравн. Толстова) 
 SMD         Средний диаметр капель по Заутеру, [мкм]                    
 Inj_pofile  Характеристика впрыска (безразмерная)                       
 Names
  Fi          dx/dFi      x           Uo          Pвпр        NOx         T_burn      Soot        S_обол      S_ядр.C     S_фронт     S_ядр.W     S_яд.Ws     S_крыш      S_цил       P_pist      Spray_tip   Spray_ang   Evap_zon    Evap_1p     HRR         Ksi_b       I_LW_1p     SMD         Inj_pofile
 Arrays
   350.0       0.000       0.000       0.000       82.80       0.000       1015.      0.9128E-01   0.000       0.000       0.000       0.000       0.000       0.000       0.000        94.089    0.2000E+26   65.06       0.000      0.2000E+26   0.000      0.2000E+26   0.000      0.2000E+26 -0.1000E-01
   350.2       0.000       0.000       23.28       93.51       0.000       1017.      0.9128E-01  0.5110E-03  0.7242E-04  0.4281E-06   0.000       0.000       0.000       0.000        94.124     1.808       48.78      0.8061E-04  0.2416E-06   0.000      0.2000E+26  0.4543E-01   56.92     -0.9423E-02
   350.4       0.000       0.000       46.56       104.2       0.000       1019.      0.9128E-01  0.1127E-02  0.1826E-03  0.1572E-05   0.000       0.000       0.000       0.000        94.158     3.413       36.26      0.2708E-03  0.1912E-05   0.000      0.2000E+26  0.9123E-01   39.36     -0.8845E-02
   350.6       0.000       0.000       69.83       114.9       0.000       1020.      0.9128E-01  0.2394E-02  0.5282E-03  0.7182E-05   0.000       0.000       0.000       0.000        94.193     4.542       32.89      0.6431E-03  0.7190E-05   0.000      0.2000E+26  0.1374       31.47     -0.8268E-02
   350.8       0.000       0.000       93.11       125.7       0.000       1022.      0.9129E-01  0.3820E-02  0.9842E-03  0.1804E-04   0.000       0.000       0.000       0.000        94.227     5.528       30.88      0.1254E-02  0.1919E-04   0.000      0.2000E+26  0.1840       27.00     -0.7690E-02
   351.0       0.000       0.000       116.4       136.4       0.000       1024.      0.9129E-01  0.5660E-02  0.1730E-02  0.4264E-04   0.000       0.000       0.000       0.000        94.262     6.433       29.39      0.2139E-02  0.4199E-04   0.000      0.2000E+26  0.2309       23.98     -0.7113E-02
   351.2       0.000       0.000       139.5       162.9       0.000       1026.      0.9129E-01  0.7694E-02  0.2690E-02  0.8552E-04   0.000       0.000       0.000       0.000        94.293     7.280       28.21      0.3313E-02  0.8058E-04   0.000      0.2000E+26  0.2781       21.77     -0.6539E-02
   351.4       0.000       0.000       162.1       189.4       0.000       1028.      0.9130E-01  0.1000E-01  0.3953E-02  0.1542E-03   0.000       0.000       0.000       0.000        94.324     8.078       27.25      0.4779E-02  0.1406E-03   0.000      0.2000E+26  0.3258       20.10     -0.5979E-02
   351.6       0.000       0.000       184.6       215.9       0.000       1029.      0.9131E-01  0.1249E-01  0.5524E-02  0.2660E-03   0.000       0.000       0.000       0.000        94.354     8.834       26.45      0.6519E-02  0.2292E-03   0.000      0.2000E+26  0.3737       18.62     -0.5420E-02
   351.8       0.000       0.000       207.1       242.3       0.000       1031.      0.9132E-01  0.1513E-01  0.7344E-02  0.4126E-03   0.000       0.000       0.000       0.000        94.385     9.556       25.76      0.8468E-02  0.3537E-03   0.000      0.2000E+26  0.4221       17.51     -0.4862E-02
   352.0       0.000       0.000       229.6       268.8       0.000       1032.      0.9133E-01  0.1795E-01  0.9577E-02  0.6387E-03   0.000       0.000       0.000       0.000        94.416     10.24       25.18      0.1062E-01  0.5227E-03   0.000      0.2000E+26  0.4707       16.58     -0.4304E-02
   352.2       0.000       0.000       252.1       303.5       0.000       1034.      0.8274E-01  0.2085E-01  0.1200E-01  0.9005E-03   0.000       0.000       0.000       0.000        94.444     10.90       24.67      0.1298E-01  0.7448E-03   0.000      0.2000E+26  0.5198       15.78     -0.3746E-02
   352.4       0.000       0.000       273.4       338.2       0.000       1035.      0.7416E-01  0.2385E-01  0.1489E-01  0.1302E-02   0.000       0.000       0.000       0.000        94.471     11.53       24.21      0.1555E-01  0.1030E-02   0.000      0.2000E+26  0.5691       15.11     -0.3217E-02
   352.6       0.000       0.000       287.8       372.8       0.000       1036.      0.6557E-01  0.2687E-01  0.1788E-01  0.1732E-02   0.000       0.000       0.000       0.000        94.498     12.15       23.79      0.1833E-01  0.1386E-02   0.000      0.2000E+26  0.6188       14.60     -0.2861E-02
   352.8       0.000       0.000       302.1       407.5       0.000       1038.      0.5699E-01  0.2987E-01  0.2128E-01  0.2355E-02   0.000       0.000       0.000       0.000        94.525     12.74       23.42      0.2131E-01  0.1818E-02   0.000      0.2000E+26  0.6687       14.23     -0.2505E-02
   353.0       0.000       0.000       316.5       442.2       0.000       1039.      0.4840E-01  0.3287E-01  0.2475E-01  0.3015E-02   0.000       0.000       0.000       0.000        94.553     13.31       23.07      0.2449E-01  0.2335E-02   0.000      0.2000E+26  0.7191       13.88     -0.2149E-02
   353.2       0.000       0.000       330.8       454.9       0.000       1040.      0.4378E-01  0.3582E-01  0.2859E-01  0.3917E-02   0.000       0.000       0.000       0.000        94.576     13.87       22.76      0.2787E-01  0.2943E-02   0.000      0.2000E+26  0.7697       13.56     -0.1793E-02
   353.4       0.000       0.000       345.2       467.6       0.000       1041.      0.3916E-01  0.3875E-01  0.3249E-01  0.4888E-02   0.000       0.000       0.000       0.000        94.600     14.40       22.48      0.3146E-01  0.3651E-02   0.000      0.2000E+26  0.8206       13.26     -0.1437E-02
   353.6       0.000       0.000       354.8       480.3       0.000       1042.      0.3455E-01  0.4161E-01  0.3657E-01  0.6072E-02   0.000       0.000       0.000       0.000        94.624     14.93       22.21      0.3525E-01  0.4463E-02   0.000      0.2000E+26  0.8718       12.99     -0.1200E-02
   353.8       0.000       0.000       355.5       493.1       0.000       1043.      0.2993E-01  0.4435E-01  0.4062E-01  0.7396E-02   0.000       0.000       0.000       0.000        94.648     15.44       21.96      0.3923E-01  0.5380E-02   0.000      0.2000E+26  0.9233       12.97     -0.1182E-02
   354.0       0.000       0.000       354.7       505.8       0.000       1044.      0.2531E-01  0.4692E-01  0.4464E-01  0.8945E-02   0.000       0.000       0.000       0.000        94.671     15.93       21.73      0.4339E-01  0.6400E-02   0.000      0.2000E+26  0.9751       12.99     -0.1202E-02
   354.2       0.000       0.000       353.9       507.7      0.7976E-03   1210.      0.4755E-01  0.4940E-01  0.4854E-01  0.1069E-01   0.000       0.000       0.000       0.000        94.691     16.42       21.52      0.4773E-01  0.7520E-02   0.000      0.2000E+26   1.000       13.00     -0.1221E-02
   354.4       0.000       0.000       353.1       509.7      0.1595E-02   1377.      0.6978E-01  0.5178E-01  0.5235E-01  0.1261E-01   0.000       0.000       0.000       0.000        94.711     16.89       21.32      0.5224E-01  0.8739E-02   0.000      0.2000E+26  0.2000E+26   13.02     -0.1240E-02
   354.6      0.2786E-04  0.5573E-05   352.4       511.6      0.2393E-02   1543.      0.9201E-01  0.5408E-01  0.5595E-01  0.1481E-01   0.000       0.000       0.000       0.000        94.731     17.34       21.13      0.5691E-01  0.2000E+26  0.4088E-01  0.9900      0.2000E+26   12.96     -0.1259E-02
   354.8      0.3704E-03  0.7964E-04   352.9       513.6      0.3190E-02   1709.      0.1142      0.5634E-01  0.5944E-01  0.1716E-01   0.000       0.000       0.000       0.000        94.752     17.79       20.95      0.6174E-01  0.2000E+26  0.5434      0.9710      0.2000E+26   12.95     -0.1246E-02
   355.0      0.9899E-03  0.2776E-03   354.8       515.5      0.3988E-02   1875.      0.1365      0.5858E-01  0.6275E-01  0.1977E-01   0.000       0.000       0.000       0.000        94.772     18.23       20.78      0.6672E-01  0.2000E+26   1.452      0.9521      0.2000E+26   12.91     -0.1198E-02
   355.2      0.1742E-02  0.6260E-03   357.1       520.1      0.2090       2010.      0.7958      0.6082E-01  0.6602E-01  0.2245E-01   0.000       0.000       0.000       0.000        94.788     18.66       20.62      0.7184E-01  0.2000E+26   2.555      0.9332      0.2000E+26   12.86     -0.1141E-02
   355.4      0.2531E-02  0.1132E-02   359.5       524.6      0.4140       2144.       1.455      0.6311E-01  0.6902E-01  0.2543E-01   0.000       0.000       0.000       0.000        94.804     19.07       20.47      0.7711E-01  0.2000E+26   3.713      0.9144      0.2000E+26   12.82     -0.1083E-02
   355.6      0.3267E-02  0.1786E-02   361.8       529.1      0.6191       2279.       2.114      0.6540E-01  0.7198E-01  0.2846E-01   0.000       0.000       0.000       0.000        94.821     19.48       20.32      0.8252E-01  0.2000E+26   4.793      0.8957      0.2000E+26   12.72     -0.1025E-02
   355.8      0.1164E-01  0.4113E-02   364.1       533.6      0.8241       2413.       2.774      0.6782E-01  0.7460E-01  0.3180E-01   0.000       0.000       0.000       0.000        94.837     19.88       20.19      0.8807E-01  0.2000E+26   17.07      0.8771      0.2000E+26   12.67     -0.9675E-03
   356.0      0.2667E-01  0.9448E-02   365.2       538.1       1.029       2548.       3.433      0.7027E-01  0.7715E-01  0.3518E-01   0.000       0.000       0.000       0.000        94.854     20.27       20.05      0.9375E-01  0.2000E+26   39.13      0.8587      0.2000E+26   12.65     -0.9408E-03
   356.2      0.2850E-01  0.1515E-01   365.1       538.2       1.695       2565.       3.818      0.7285E-01  0.7941E-01  0.3871E-01   0.000       0.000       0.000       0.000        94.867     20.65       19.93      0.9954E-01  0.2000E+26   41.81      0.8404      0.2000E+26   12.66     -0.9440E-03
   356.4      0.2873E-01  0.2089E-01   364.7       538.3       2.360       2583.       4.203      0.7550E-01  0.8165E-01  0.4219E-01   0.000       0.000       0.000       0.000        94.879     21.02       19.81      0.1055      0.2000E+26   42.14      0.8223      0.2000E+26   12.66     -0.9535E-03
   356.6      0.2873E-01  0.2664E-01   364.3       538.4       3.026       2601.       4.588      0.7830E-01  0.8385E-01  0.4556E-01   0.000       0.000       0.000       0.000        94.892     21.39       19.70      0.1115      0.2000E+26   42.15      0.8044      0.2000E+26   12.62     -0.9631E-03
   356.8      0.2856E-01  0.3235E-01   363.9       538.5       3.691       2618.       4.972      0.8119E-01  0.8628E-01  0.4859E-01   0.000       0.000       0.000       0.000        94.905     21.74       19.59      0.1176      0.2000E+26   41.90      0.7868      0.2000E+26   12.63     -0.9727E-03
   357.0      0.2982E-01  0.3832E-01   363.8       538.6       4.357       2636.       5.357      0.8419E-01  0.8896E-01  0.5127E-01   0.000       0.000       0.000       0.000        94.918     22.09       19.48      0.1238      0.2000E+26   43.76      0.7694      0.2000E+26   12.63     -0.9748E-03
   357.2      0.3258E-01  0.4483E-01   364.7       545.9       5.668       2638.       5.565      0.8738E-01  0.9175E-01  0.5369E-01   0.000       0.000       0.000       0.000        94.927     22.43       19.38      0.1301      0.2000E+26   47.80      0.7522      0.2000E+26   12.62     -0.9531E-03
   357.4      0.3249E-01  0.5133E-01   367.0       553.2       6.978       2641.       5.773      0.9069E-01  0.9462E-01  0.5594E-01   0.000       0.000       0.000       0.000        94.936     22.77       19.29      0.1365      0.2000E+26   47.67      0.7354      0.2000E+26   12.57     -0.8956E-03
   357.6      0.3214E-01  0.5776E-01   369.6       560.5       8.289       2644.       5.981      0.9429E-01  0.9714E-01  0.5832E-01   0.000       0.000       0.000       0.000        94.945     23.10       19.20      0.1430      0.2000E+26   47.16      0.7188      0.2000E+26   12.49     -0.8316E-03
   357.8      0.3186E-01  0.6413E-01   372.2       567.7       9.600       2647.       6.189      0.9799E-01  0.9957E-01  0.6073E-01   0.000       0.000       0.000       0.000        94.954     23.42       19.11      0.1496      0.2000E+26   46.74      0.7026      0.2000E+26   12.45     -0.7676E-03
   358.0      0.3164E-01  0.7046E-01   374.8       575.0       10.91       2650.       6.397      0.1021      0.1017      0.6313E-01   0.000       0.000       0.000       0.000        94.963     23.74       19.02      0.1562      0.2000E+26   46.42      0.6867      0.2000E+26   12.40     -0.7036E-03
   358.2      0.3122E-01  0.7670E-01   376.7       573.1       13.00       2652.       6.454      0.1063      0.1037      0.6551E-01   0.000       0.000       0.000       0.000        94.969     24.05       18.94      0.1629      0.2000E+26   45.80      0.6712      0.2000E+26   12.37     -0.6549E-03
   358.4      0.3119E-01  0.8294E-01   378.1       571.2       15.10       2655.       6.512      0.1110      0.1057      0.6758E-01   0.000       0.000       0.000       0.000        94.974     24.35       18.86      0.1697      0.2000E+26   45.76      0.6560      0.2000E+26   12.34     -0.6215E-03
   358.6      0.3111E-01  0.8916E-01   377.0       569.3       17.19       2657.       6.569      0.1157      0.1076      0.6955E-01   0.000       0.000       0.000       0.000        94.980     24.65       18.78      0.1765      0.2000E+26   45.65      0.6413      0.2000E+26   12.34     -0.6470E-03
   358.8      0.3102E-01  0.9537E-01   376.0       567.4       19.28       2660.       6.626      0.1207      0.1098      0.7108E-01   0.000       0.000       0.000       0.000        94.985     24.94       18.71      0.1834      0.2000E+26   45.50      0.6269      0.2000E+26   12.35     -0.6725E-03
   359.0      0.3091E-01  0.1015       375.0       565.5       21.37       2662.       6.684      0.1257      0.1119      0.7243E-01   0.000       0.000       0.000       0.000        94.991     25.23       18.64      0.1903      0.2000E+26   45.34      0.6130      0.2000E+26   12.37     -0.6979E-03
   359.2      0.3078E-01  0.1077       374.0       555.5       24.32       2665.       6.675      0.1310      0.1142      0.7343E-01   0.000       0.000       0.000       0.000        94.993     25.51       18.57      0.1972      0.2000E+26   45.16      0.5994      0.2000E+26   12.39     -0.7234E-03
   359.4      0.3065E-01  0.1138       372.3       545.4       27.26       2667.       6.665      0.1366      0.1160      0.7454E-01   0.000       0.000       0.000       0.000        94.995     25.80       18.56      0.2041      0.2000E+26   44.96      0.5864      0.2000E+26   12.42     -0.7639E-03
   359.6      0.3050E-01  0.1199       369.6       535.4       30.20       2669.       6.656      0.1426      0.1173      0.7577E-01   0.000       0.000       0.000       0.000        94.996     26.08       18.57      0.2111      0.2000E+26   44.75      0.5737      0.2000E+26   12.46     -0.8318E-03
   359.8      0.3034E-01  0.1260       365.7       525.4       33.15       2671.       6.647      0.1485      0.1184      0.7706E-01   0.000       0.000       0.000       0.000        94.998     26.35       18.57      0.2182      0.2000E+26   44.51      0.5616      0.2000E+26   12.53     -0.9284E-03
   360.0      0.3017E-01  0.1320       361.4       515.4       36.09       2673.       6.638      0.1545      0.1194      0.7839E-01   0.000       0.000       0.000       0.000        95.000     26.62       18.57      0.2252      0.2000E+26   44.26      0.5499      0.2000E+26   12.61     -0.1035E-02
   360.2      0.2999E-01  0.1380       357.1       514.9       39.87       2675.       6.593      0.1610      0.1199      0.7952E-01   0.000       0.000       0.000       0.000        94.998     26.89       18.57      0.2323      0.2000E+26   44.00      0.5387      0.2000E+26   12.69     -0.1142E-02
   360.4      0.2980E-01  0.1440       352.8       514.4       43.65       2677.       6.549      0.1677      0.1202      0.8059E-01   0.000       0.000       0.000       0.000        94.996     27.15       18.57      0.2394      0.2000E+26   43.72      0.5279      0.2000E+26   12.77     -0.1248E-02
   360.6      0.2960E-01  0.1499       348.5       514.0       47.43       2678.       6.504      0.1751      0.1197      0.8082E-01  0.8934E-03   0.000       0.000       0.000        94.995     27.41       18.57      0.2465      0.2000E+26   43.43      0.5177      0.2000E+26   12.86     -0.1355E-02
   360.8      0.2938E-01  0.1558       348.6       513.5       51.21       2680.       6.460      0.1827      0.1190      0.8091E-01  0.1960E-02   0.000       0.000       0.000        94.993     27.67       18.57      0.2536      0.2000E+26   43.10      0.5080      0.2000E+26   12.85     -0.1352E-02
   361.0      0.2911E-01  0.1616       350.1       513.1       54.99       2681.       6.415      0.1906      0.1168      0.7738E-01  0.7859E-02   0.000       0.000       0.000        94.991     27.92       18.57      0.2607      0.2000E+26   42.71      0.4987      0.2000E+26   12.82     -0.1314E-02
   361.2      0.2884E-01  0.1674       352.0       517.8       59.51       2683.       6.353      0.1985      0.1145      0.7370E-01  0.1390E-01   0.000       0.000       0.000        94.985     28.17       18.57      0.2679      0.2000E+26   42.30      0.4900      0.2000E+26   12.79     -0.1268E-02
   361.4      0.2856E-01  0.1731       353.9       522.5       64.02       2684.       6.290      0.2065      0.1124      0.6911E-01  0.2076E-01   0.000       0.000       0.000        94.980     28.43       18.57      0.2752      0.2000E+26   41.91      0.4818      0.2000E+26   12.75     -0.1222E-02
   361.6      0.2830E-01  0.1788       355.7       527.2       68.54       2685.       6.228      0.2142      0.1106      0.6442E-01  0.2783E-01   0.000       0.000       0.000        94.974     28.67       18.57      0.2824      0.2000E+26   41.51      0.4742      0.2000E+26   12.73     -0.1176E-02
   361.8      0.2803E-01  0.1844       357.5       531.9       73.05       2686.       6.165      0.2210      0.1093      0.5947E-01  0.3546E-01   0.000       0.000       0.000        94.969     28.92       18.57      0.2898      0.2000E+26   41.13      0.4670      0.2000E+26   12.70     -0.1131E-02
   362.0      0.2777E-01  0.1899       359.2       536.7       77.56       2687.       6.103      0.2278      0.1082      0.5432E-01  0.4318E-01   0.000       0.000       0.000        94.963     29.16       18.57      0.2972      0.2000E+26   40.75      0.4604      0.2000E+26   12.67     -0.1089E-02
   362.2      0.2753E-01  0.1954       360.9       540.1       82.65       2687.       6.041      0.2345      0.1073      0.4892E-01  0.5105E-01   0.000       0.000       0.000        94.954     29.41       18.57      0.3046      0.2000E+26   40.38      0.4542      0.2000E+26   12.64     -0.1049E-02
   362.4      0.2729E-01  0.2009       362.5       543.5       87.73       2688.       5.980      0.2412      0.1069      0.4322E-01  0.5884E-01   0.000       0.000       0.000        94.945     29.65       18.57      0.3121      0.2000E+26   40.03      0.4486      0.2000E+26   12.61     -0.1009E-02
   362.6      0.2706E-01  0.2063       364.1       546.9       92.81       2688.       5.919      0.2479      0.1068      0.3729E-01  0.6658E-01   0.000       0.000       0.000        94.936     29.88       18.57      0.3197      0.2000E+26   39.70      0.4436      0.2000E+26   12.60     -0.9693E-03
   362.8      0.2685E-01  0.2117       365.6       550.3       97.90       2689.       5.858      0.2545      0.1071      0.3118E-01  0.7410E-01   0.000       0.000       0.000        94.927     30.12       18.57      0.3273      0.2000E+26   39.39      0.4390      0.2000E+26   12.58     -0.9302E-03
   363.0      0.2665E-01  0.2170       366.8       553.7       103.0       2689.       5.796      0.2613      0.1075      0.2500E-01  0.8152E-01   0.000       0.000       0.000        94.918     30.35       18.57      0.3350      0.2000E+26   39.10      0.4350      0.2000E+26   12.55     -0.9019E-03
   363.2      0.2647E-01  0.2223       367.8       555.3       108.4       2689.       5.747      0.2687      0.1082      0.1873E-01  0.8820E-01   0.000       0.000       0.000        94.905     30.59       18.57      0.3427      0.2000E+26   38.84      0.4314      0.2000E+26   12.54     -0.8770E-03
   363.4      0.2631E-01  0.2275       368.0       557.0       113.9       2689.       5.698      0.2762      0.1089      0.1244E-01  0.9473E-01   0.000       0.000       0.000        94.892     30.82       18.57      0.3505      0.2000E+26   38.60      0.4284      0.2000E+26   12.53     -0.8704E-03
   363.6      0.2617E-01  0.2328       368.3       558.6       119.4       2689.       5.649      0.2829      0.1089      0.6976E-02  0.1019       0.000       0.000       0.000        94.879     31.05       18.57      0.3584      0.2000E+26   38.39      0.4259      0.2000E+26   12.57     -0.8638E-03
   363.8      0.2602E-01  0.2380       368.6       560.3       124.8       2689.       5.600      0.2896      0.1088      0.2016E-02  0.1087       0.000       0.000       0.000        94.867     31.27       18.57      0.3663      0.2000E+26   38.17      0.4238      0.2000E+26   12.56     -0.8572E-03
   364.0      0.2592E-01  0.2432       369.1       561.9       130.3       2689.       5.551      0.2960      0.1081      0.8628E-03  0.1126       0.000       0.000       0.000        94.854     31.50       18.57      0.3743      0.2000E+26   38.02      0.4223      0.2000E+26   12.55     -0.8451E-03
   364.2      0.2585E-01  0.2483       370.0       569.9       136.0       2689.       5.521      0.3023      0.1074       0.000      0.1163       0.000       0.000       0.000        94.837     31.72       18.57      0.3824      0.2000E+26   37.92      0.4212      0.2000E+26   12.54     -0.8208E-03
   364.4      0.2580E-01  0.2535       371.7       577.8       141.7       2688.       5.492      0.3083      0.1068       0.000      0.1196       0.000       0.000       0.000        94.821     31.95       18.57      0.3905      0.2000E+26   37.84      0.4206      0.2000E+26   12.51     -0.7794E-03
   364.6      0.2575E-01  0.2586       374.6       585.8       147.3       2688.       5.462      0.3139      0.1062       0.000      0.1232       0.000       0.000       0.000        94.804     32.17       18.57      0.3986      0.2000E+26   37.78      0.4205      0.2000E+26   12.50     -0.7068E-03
   364.8      0.2573E-01  0.2638       377.6       593.7       153.0       2687.       5.432      0.3188      0.1057       0.000      0.1275       0.000       0.000       0.000        94.788     32.39       18.57      0.4068      0.2000E+26   37.74      0.4208      0.2000E+26   12.45     -0.6342E-03
   365.0      0.2572E-01  0.2689       380.5       601.7       158.7       2687.       5.403      0.3237      0.1053       0.000      0.1318       0.000       0.000       0.000        94.772     32.61       18.57      0.4150      0.2000E+26   37.73      0.4216      0.2000E+26   12.40     -0.5616E-03
   365.2      0.2573E-01  0.2741       383.5       612.9       164.4       2686.       5.392      0.3287      0.1049       0.000      0.1361       0.000       0.000       0.000        94.752     32.82       18.57      0.4233      0.2000E+26   37.74      0.4228      0.2000E+26   12.35     -0.4875E-03
   365.4      0.2575E-01  0.2792       386.6       624.1       170.2       2685.       5.381      0.3336      0.1047       0.000      0.1403       0.000       0.000       0.000        94.731     33.04       18.57      0.4317      0.2000E+26   37.78      0.4244      0.2000E+26   12.30     -0.4107E-03
   365.6      0.2580E-01  0.2844       389.8       635.4       175.9       2684.       5.371      0.3385      0.1045       0.000      0.1446       0.000       0.000       0.000        94.711     33.25       18.57      0.4401      0.2000E+26   37.85      0.4265      0.2000E+26   12.30     -0.3311E-03
   365.8      0.2587E-01  0.2896       393.2       646.6       181.6       2683.       5.360      0.3431      0.1045       0.000      0.1490       0.000       0.000       0.000        94.691     33.46       18.57      0.4486      0.2000E+26   37.95      0.4289      0.2000E+26   12.25     -0.2453E-03
   366.0      0.2595E-01  0.2948       396.7       657.8       187.4       2682.       5.349      0.3477      0.1047       0.000      0.1535       0.000       0.000       0.000        94.671     33.67       18.57      0.4571      0.2000E+26   38.08      0.4318      0.2000E+26   12.19     -0.1595E-03
   366.2      0.2605E-01  0.3000       400.2       651.3       193.1       2681.       5.356      0.3519      0.1049       0.000      0.1582       0.000       0.000       0.000        94.648     33.89       18.57      0.4657      0.2000E+26   38.22      0.4350      0.2000E+26   12.13     -0.7363E-04
   366.4      0.2617E-01  0.3052       403.1       644.7       198.8       2680.       5.363      0.3560      0.1052       0.000      0.1630       0.000       0.000       0.000        94.624     34.09       18.57      0.4744      0.2000E+26   38.39      0.4386      0.2000E+26   12.09       0.000    
   366.6      0.2630E-01  0.3105       402.7       638.2       204.5       2678.       5.369      0.3597      0.1054       0.000      0.1683       0.000       0.000       0.000        94.600     34.30       18.57      0.4831      0.2000E+26   38.58      0.4425      0.2000E+26   12.16     -0.9451E-05
   366.8      0.2644E-01  0.3157       402.4       631.7       210.2       2677.       5.376      0.3634      0.1054       0.000      0.1737       0.000       0.000       0.000        94.577     34.51       18.57      0.4919      0.2000E+26   38.79      0.4468      0.2000E+26   12.17     -0.1906E-04
   367.0      0.2659E-01  0.3211       397.8       625.2       215.9       2676.       5.383      0.3670      0.1049       0.000      0.1797       0.000       0.000       0.000        94.553     34.71       18.57      0.5007      0.2000E+26   39.02      0.4515      0.2000E+26   12.24     -0.1313E-03
   367.2      0.2676E-01  0.3264       393.3       619.3       221.5       2675.       5.404      0.3706      0.1042       0.000      0.1858       0.000       0.000       0.000        94.526     34.91       18.57      0.5096      0.2000E+26   39.26      0.4564      0.2000E+26   12.32     -0.2435E-03
   367.4      0.2694E-01  0.3318       388.8       613.5       227.1       2673.       5.424      0.3741      0.1033       0.000      0.1921       0.000       0.000       0.000        94.498     35.12       18.57      0.5186      0.2000E+26   39.52      0.4616      0.2000E+26   12.39     -0.3558E-03
   367.6      0.2712E-01  0.3372       384.3       607.7       232.7       2672.       5.445      0.3775      0.1023       0.000      0.1985       0.000       0.000       0.000        94.471     35.32       18.57      0.5276      0.2000E+26   39.79      0.4672      0.2000E+26   12.55     -0.4680E-03
   367.8      0.2732E-01  0.3427       382.5       601.8       238.3       2670.       5.466      0.3808      0.1011       0.000      0.2052       0.000       0.000       0.000        94.444     35.52       18.57      0.5367      0.2000E+26   40.09      0.4730      0.2000E+26   12.58     -0.5120E-03
   368.0      0.2753E-01  0.3482       382.1       596.0       243.9       2669.       5.487      0.3850      0.9977E-01   0.000      0.2111       0.000       0.000       0.000        94.416     35.72       18.57      0.5459      0.2000E+26   40.39      0.4790      0.2000E+26   12.59     -0.5219E-03
   368.2      0.2776E-01  0.3538       382.3       592.4       249.4       2667.       5.520      0.3896      0.9843E-01   0.000      0.2166       0.000       0.000       0.000        94.385     35.92       18.57      0.5551      0.2000E+26   40.73      0.4853      0.2000E+26   12.58     -0.5156E-03
   368.4      0.2801E-01  0.3594       383.4       588.9       254.9       2665.       5.554      0.3954      0.9709E-01   0.000      0.2210       0.000       0.000       0.000        94.354     36.11       18.57      0.5644      0.2000E+26   41.09      0.4919      0.2000E+26   12.57     -0.4899E-03
   368.6      0.2826E-01  0.3650       384.3       585.3       260.3       2664.       5.588      0.4015      0.9575E-01   0.000      0.2250       0.000       0.000       0.000        94.324     36.31       18.57      0.5737      0.2000E+26   41.47      0.4986      0.2000E+26   12.64     -0.4669E-03
   368.8      0.2853E-01  0.3707       384.9       581.8       265.8       2662.       5.622      0.4079      0.9493E-01   0.000      0.2283       0.000       0.000       0.000        94.293     36.50       18.57      0.5830      0.2000E+26   41.85      0.5056      0.2000E+26   12.63     -0.4526E-03
   369.0      0.2880E-01  0.3765       385.5       578.2       271.3       2660.       5.656      0.4143      0.9420E-01   0.000      0.2314       0.000       0.000       0.000        94.262     36.70       18.57      0.5924      0.2000E+26   42.25      0.5127      0.2000E+26   12.62     -0.4383E-03
   369.2      0.2908E-01  0.3823       381.8       571.0       276.6       2658.       5.698      0.4208      0.9428E-01   0.000      0.2335       0.000       0.000       0.000        94.227     36.89       18.57      0.6018      0.2000E+26   42.66      0.5201      0.2000E+26   12.69     -0.5301E-03
   369.4      0.2936E-01  0.3882       377.9       563.7       281.9       2657.       5.741      0.4273      0.9442E-01   0.000      0.2356       0.000       0.000       0.000        94.193     37.08       18.57      0.6113      0.2000E+26   43.08      0.5276      0.2000E+26   12.76     -0.6263E-03
   369.6      0.2965E-01  0.3941       374.0       556.5       287.2       2655.       5.784      0.4337      0.9483E-01   0.000      0.2372       0.000       0.000       0.000        94.158     37.27       18.57      0.6207      0.2000E+26   43.49      0.5352      0.2000E+26   12.93     -0.7225E-03
   369.8      0.2993E-01  0.4001       370.1       549.3       292.5       2653.       5.826      0.4402      0.9514E-01   0.000      0.2389       0.000       0.000       0.000        94.124     37.46       18.57      0.6302      0.2000E+26   43.91      0.5430      0.2000E+26   13.00     -0.8187E-03
   370.0      0.3022E-01  0.4061       367.1       542.0       297.8       2651.       5.869      0.4467      0.9526E-01   0.000      0.2407       0.000       0.000       0.000        94.089     37.65       18.57      0.6397      0.2000E+26   44.33      0.5509      0.2000E+26   13.05     -0.8935E-03
   370.2      0.3050E-01  0.4122       365.7       543.9       302.9       2649.       5.915      0.4531      0.9514E-01   0.000      0.2428       0.000       0.000       0.000        94.051     37.84       18.57      0.6492      0.2000E+26   44.75      0.5589      0.2000E+26   13.08     -0.9288E-03
   370.4      0.3078E-01  0.4184       364.3       545.7       308.0       2647.       5.961      0.4594      0.9477E-01   0.000      0.2453       0.000       0.000       0.000        94.013     38.03       18.57      0.6588      0.2000E+26   45.16      0.5670      0.2000E+26   13.11     -0.9637E-03
   370.6      0.3106E-01  0.4246       365.1       547.5       313.2       2645.       6.008      0.4654      0.9422E-01   0.000      0.2482       0.000       0.000       0.000        93.975     38.21       18.57      0.6683      0.2000E+26   45.57      0.5752      0.2000E+26   13.20     -0.9445E-03
   370.8      0.3134E-01  0.4309       365.8       549.3       318.3       2643.       6.054      0.4713      0.9355E-01   0.000      0.2514       0.000       0.000       0.000        93.937     38.40       18.57      0.6779      0.2000E+26   45.98      0.5835      0.2000E+26   13.19     -0.9253E-03
   371.0      0.3161E-01  0.4372       366.6       551.2       323.4       2641.       6.101      0.4770      0.9298E-01   0.000      0.2547       0.000       0.000       0.000        93.899     38.58       18.57      0.6875      0.2000E+26   46.38      0.5919      0.2000E+26   13.18     -0.9069E-03
   371.2      0.3189E-01  0.4436       367.3       548.9       328.4       2639.       6.148      0.4826      0.9243E-01   0.000      0.2580       0.000       0.000       0.000        93.857     38.76       18.57      0.6972      0.2000E+26   46.78      0.6002      0.2000E+26   13.16     -0.8890E-03
   371.4      0.3216E-01  0.4500       367.7       546.7       333.4       2637.       6.195      0.4883      0.9232E-01   0.000      0.2609       0.000       0.000       0.000        93.816     38.95       18.57      0.7068      0.2000E+26   47.18      0.6087      0.2000E+26   13.15     -0.8798E-03
   371.6      0.3243E-01  0.4565       366.9       544.4       338.3       2635.       6.243      0.4940      0.9227E-01   0.000      0.2636       0.000       0.000       0.000        93.774     39.13       18.57      0.7165      0.2000E+26   47.58      0.6171      0.2000E+26   13.29     -0.8991E-03
   371.8      0.3270E-01  0.4630       366.1       542.2       343.3       2633.       6.290      0.5003      0.9279E-01   0.000      0.2652       0.000       0.000       0.000        93.733     39.31       18.57      0.7262      0.2000E+26   47.97      0.6256      0.2000E+26   13.30     -0.9183E-03
   372.0      0.3296E-01  0.4696       365.3       539.9       348.2       2631.       6.337      0.5068      0.9332E-01   0.000      0.2665       0.000       0.000       0.000        93.691     39.49       18.57      0.7359      0.2000E+26   48.36      0.6341      0.2000E+26   13.32     -0.9375E-03
   372.2      0.3323E-01  0.4763       364.6       526.2       353.0       2629.       6.383      0.5148      0.9391E-01   0.000      0.2663       0.000       0.000       0.000        93.646     39.67       18.57      0.7455      0.2000E+26   48.75      0.6425      0.2000E+26   13.33     -0.9567E-03
   372.4      0.3348E-01  0.4829       362.6       512.5       357.8       2627.       6.429      0.5229      0.9430E-01   0.000      0.2661       0.000       0.000       0.000        93.601     39.85       18.57      0.7552      0.2000E+26   49.12      0.6510      0.2000E+26   13.37     -0.1005E-02
   372.6      0.3373E-01  0.4897       358.5       498.9       362.6       2625.       6.475      0.5311      0.9420E-01   0.000      0.2661       0.000       0.000       0.000        93.556     40.02       18.57      0.7649      0.2000E+26   49.48      0.6594      0.2000E+26   13.58     -0.1107E-02
   372.8      0.3397E-01  0.4965       354.4       485.2       367.3       2623.       6.521      0.5395      0.9385E-01   0.000      0.2660       0.000       0.000       0.000        93.510     40.20       18.57      0.7745      0.2000E+26   49.83      0.6678      0.2000E+26   13.66     -0.1208E-02
   373.0      0.3420E-01  0.5033       348.5       471.5       372.1       2621.       6.567      0.5481      0.9319E-01   0.000      0.2660       0.000       0.000       0.000        93.465     40.38       18.57      0.7842      0.2000E+26   50.17      0.6762      0.2000E+26   13.78     -0.1356E-02
   373.2      0.3442E-01  0.5102       342.3       448.8       376.7       2619.       6.608      0.5569      0.9226E-01   0.000      0.2659       0.000       0.000       0.000        93.417     40.55       18.57      0.7938      0.2000E+26   50.49      0.6845      0.2000E+26   13.92     -0.1510E-02
   373.4      0.3462E-01  0.5171       335.5       426.0       381.3       2617.       6.648      0.5659      0.9114E-01   0.000      0.2656       0.000       0.000       0.000        93.368     40.73       18.57      0.8034      0.2000E+26   50.79      0.6928      0.2000E+26   14.06     -0.1677E-02
   373.6      0.3481E-01  0.5241       327.9       403.3       385.9       2615.       6.688      0.5741      0.8979E-01   0.000      0.2660       0.000       0.000       0.000        93.319     40.90       18.57      0.8130      0.2000E+26   51.07      0.7010      0.2000E+26   14.38     -0.1867E-02
   373.8      0.3498E-01  0.5311       320.2       380.6       390.4       2613.       6.728      0.5819      0.8835E-01   0.000      0.2667       0.000       0.000       0.000        93.271     41.07       18.57      0.8226      0.2000E+26   51.32      0.7091      0.2000E+26   14.56     -0.2057E-02
   374.0      0.3513E-01  0.5381       308.9       357.9       395.0       2611.       6.769      0.5882      0.8685E-01   0.000      0.2689       0.000       0.000       0.000        93.222     41.24       18.57      0.8322      0.2000E+26   51.54      0.7171      0.2000E+26   14.84     -0.2337E-02
   374.2      0.3527E-01  0.5452       296.9       332.1       399.4       2609.       6.799      0.5941      0.8535E-01   0.000      0.2713       0.000       0.000       0.000        93.170     41.42       18.57      0.8417      0.2000E+26   51.74      0.7251      0.2000E+26   15.16     -0.2635E-02
   374.4      0.3538E-01  0.5522       284.9       306.4       403.8       2606.       6.829      0.5982      0.8341E-01   0.000      0.2750       0.000       0.000       0.000        93.118     41.59       18.57      0.8513      0.2000E+26   51.90      0.7329      0.2000E+26   15.49     -0.2934E-02
   374.6      0.3547E-01  0.5593       272.8       280.7       408.2       2604.       6.859      0.6024      0.8145E-01   0.000      0.2787       0.000       0.000       0.000        93.066     41.76       18.57      0.8608      0.2000E+26   52.04      0.7407      0.2000E+26   16.01     -0.3232E-02
   374.8      0.3555E-01  0.5665       260.8       254.9       412.5       2602.       6.890      0.6065      0.7948E-01   0.000      0.2825       0.000       0.000       0.000        93.014     41.93       18.57      0.8703      0.2000E+26   52.16      0.7484      0.2000E+26   16.40     -0.3530E-02
   375.0      0.3561E-01  0.5736       243.6       229.2       416.9       2600.       6.920      0.6105      0.7738E-01   0.000      0.2860       0.000       0.000       0.000        92.961     42.09       18.57      0.8798      0.2000E+26   52.24      0.7559      0.2000E+26   17.01     -0.3958E-02
   375.2      0.3563E-01  0.5807       223.8       209.9       421.1       2598.       6.938      0.6144      0.7490E-01   0.000      0.2888       0.000       0.000       0.000        92.906     42.26       18.57      0.8892      0.2000E+26   52.27      0.7634      0.2000E+26   17.79     -0.4448E-02
   375.4      0.3564E-01  0.5878       204.1       190.6       425.2       2595.       6.955      0.6182      0.7242E-01   0.000      0.2916       0.000       0.000       0.000        92.850     42.43       18.57      0.8986      0.2000E+26   52.29      0.7707      0.2000E+26   18.69     -0.4938E-02
   375.6      0.3566E-01  0.5950       183.9       171.2       429.4       2593.       6.973      0.6221      0.6995E-01   0.000      0.2944       0.000       0.000       0.000        92.795     42.60       18.57      0.9079      0.2000E+26   52.32      0.7780      0.2000E+26   19.95     -0.5439E-02
   375.8      0.3565E-01  0.6021       163.7       151.9       433.5       2591.       6.991      0.6268      0.6714E-01   0.000      0.2959       0.000       0.000       0.000        92.739     42.76       18.57      0.9172      0.2000E+26   52.30      0.7850      0.2000E+26   21.23     -0.5939E-02
   376.0      0.3561E-01  0.6092       142.7       132.6       437.6       2589.       7.009      0.6323      0.6404E-01   0.000      0.2963       0.000       0.000       0.000        92.684     42.93       18.57      0.9264      0.2000E+26   52.24      0.7920      0.2000E+26   22.83     -0.6459E-02
   376.2      0.3556E-01  0.6163       120.7       127.7       441.5       2586.       7.014      0.6381      0.6077E-01   0.000      0.2959       0.000       0.000       0.000        92.625     43.09       18.57      0.9355      0.2000E+26   52.16      0.7988      0.2000E+26   24.97     -0.7007E-02
   376.4      0.3548E-01  0.6234       98.61       122.8       445.4       2584.       7.020      0.6441      0.5743E-01   0.000      0.2953       0.000       0.000       0.000        92.566     43.26       18.57      0.9446      0.2000E+26   52.06      0.8056      0.2000E+26   27.80     -0.7554E-02
   376.6      0.3543E-01  0.6305       75.92       117.8       449.3       2582.       7.026      0.6503      0.5387E-01   0.000      0.2938       0.000       0.000       0.000        92.507     43.42       18.57      0.9536      0.2000E+26   51.97      0.8121      0.2000E+26   32.28     -0.8117E-02
   376.8      0.3532E-01  0.6376       53.03       112.9       453.2       2579.       7.031      0.6567      0.5027E-01   0.000      0.2922       0.000       0.000       0.000        92.448     43.58       18.57      0.9624      0.2000E+26   51.82      0.8186      0.2000E+26   39.07     -0.8684E-02
   377.0      0.3520E-01  0.6446       31.20       108.0       457.1       2577.       7.037      0.6628      0.4651E-01   0.000      0.2902       0.000       0.000       0.000        92.389     43.75       18.57      0.9712      0.2000E+26   51.64      0.8249      0.2000E+26   51.81     -0.9226E-02
   377.2      0.3506E-01  0.6516       0.000       106.9       460.7       2574.       7.031      0.6688      0.4300E-01   0.000      0.2881       0.000       0.000       0.000        92.326     43.91       18.57      0.2000E+26  0.2000E+26   51.44      0.8310      0.2000E+26  0.2000E+26 -0.1000E-01
   377.4      0.3491E-01  0.6586       0.000       105.8       464.3       2572.       7.026      0.6730      0.4203E-01   0.000      0.2849       0.000       0.000       0.000        92.264     44.07       18.57      0.2000E+26  0.2000E+26   51.22      0.8370      0.2000E+26  0.2000E+26 -0.1000E-01
   377.6      0.3479E-01  0.6656       0.000       104.7       467.9       2570.       7.020      0.6772      0.4111E-01   0.000      0.2817       0.000       0.000       0.000        92.201     44.23       18.57      0.2000E+26  0.2000E+26   51.04      0.8429      0.2000E+26  0.2000E+26 -0.1000E-01
   377.8      0.3461E-01  0.6725       0.000       103.6       471.5       2567.       7.014      0.6813      0.4037E-01   0.000      0.2784       0.000       0.000       0.000        92.139     44.39       18.57      0.2000E+26  0.2000E+26   50.78      0.8487      0.2000E+26  0.2000E+26 -0.1000E-01
   378.0      0.3443E-01  0.6794       0.000       102.6       475.1       2565.       7.009      0.6853      0.3970E-01   0.000      0.2750       0.000       0.000       0.000        92.076     44.55       18.57      0.2000E+26  0.2000E+26   50.51      0.8543      0.2000E+26  0.2000E+26 -0.1000E-01
   378.2      0.3423E-01  0.6862       0.000       101.9       478.4       2562.       6.993      0.6892      0.3914E-01   0.000      0.2717       0.000       0.000       0.000        92.011     44.71       18.57      0.2000E+26  0.2000E+26   50.22      0.8597      0.2000E+26  0.2000E+26 -0.1000E-01
   378.4      0.3403E-01  0.6930       0.000       101.3       481.7       2559.       6.978      0.6931      0.3858E-01   0.000      0.2683       0.000       0.000       0.000        91.945     44.87       18.57      0.2000E+26  0.2000E+26   49.92      0.8650      0.2000E+26  0.2000E+26 -0.1000E-01
   378.6      0.3384E-01  0.6998       0.000       100.7       485.0       2557.       6.962      0.6970      0.3805E-01   0.000      0.2650       0.000       0.000       0.000        91.879     45.02       18.57      0.2000E+26  0.2000E+26   49.65      0.8702      0.2000E+26  0.2000E+26 -0.1000E-01
   378.8      0.3362E-01  0.7065       0.000       100.1       488.3       2554.       6.946      0.7013      0.3751E-01   0.000      0.2612       0.000       0.000       0.000        91.813     45.18       18.57      0.2000E+26  0.2000E+26   49.32      0.8753      0.2000E+26  0.2000E+26 -0.1000E-01
   379.0      0.3338E-01  0.7132       0.000       99.52       491.6       2552.       6.931      0.7058      0.3698E-01   0.000      0.2572       0.000       0.000       0.000        91.748     45.34       18.57      0.2000E+26  0.2000E+26   48.97      0.8801      0.2000E+26  0.2000E+26 -0.1000E-01
   379.2      0.3313E-01  0.7198       0.000       98.90       494.6       2549.       6.906      0.7105      0.3644E-01   0.000      0.2530       0.000       0.000       0.000        91.678     45.49       18.57      0.2000E+26  0.2000E+26   48.61      0.8849      0.2000E+26  0.2000E+26 -0.1000E-01
   379.4      0.3288E-01  0.7264       0.000       98.28       497.6       2546.       6.882      0.7153      0.3590E-01   0.000      0.2488       0.000       0.000       0.000        91.609     45.65       18.57      0.2000E+26  0.2000E+26   48.24      0.8895      0.2000E+26  0.2000E+26 -0.1000E-01
   379.6      0.3264E-01  0.7329       0.000       97.66       500.6       2543.       6.858      0.7214      0.3537E-01   0.000      0.2432       0.000       0.000       0.000        91.540     45.80       18.57      0.2000E+26  0.2000E+26   47.89      0.8940      0.2000E+26  0.2000E+26 -0.1000E-01
   379.8      0.3237E-01  0.7394       0.000       97.04       503.5       2541.       6.834      0.7276      0.3483E-01   0.000      0.2375       0.000       0.000       0.000        91.471     45.96       18.57      0.2000E+26  0.2000E+26   47.49      0.8983      0.2000E+26  0.2000E+26 -0.1000E-01
   380.0      0.3209E-01  0.7458       0.000       96.42       506.5       2538.       6.809      0.7339      0.3429E-01   0.000      0.2318       0.000       0.000       0.000        91.402     46.11       18.57      0.2000E+26  0.2000E+26   47.08      0.9026      0.2000E+26  0.2000E+26 -0.1000E-01
   380.2      0.3180E-01  0.7522       0.000       95.79       509.2       2535.       6.777      0.7401      0.3375E-01   0.000      0.2261       0.000       0.000       0.000        91.330     46.27       18.57      0.2000E+26  0.2000E+26   46.65      0.9066      0.2000E+26  0.2000E+26 -0.1000E-01
   380.4      0.3150E-01  0.7585       0.000       95.16       511.8       2532.       6.745      0.7461      0.3321E-01   0.000      0.2207       0.000       0.000       0.000        91.257     46.42       18.57      0.2000E+26  0.2000E+26   46.21      0.9106      0.2000E+26  0.2000E+26 -0.1000E-01
   380.6      0.3121E-01  0.7647       0.000       94.53       514.5       2529.       6.713      0.7518      0.3267E-01   0.000      0.2155       0.000       0.000       0.000        91.185     46.57       18.57      0.2000E+26  0.2000E+26   45.78      0.9144      0.2000E+26  0.2000E+26 -0.1000E-01
   380.8      0.3089E-01  0.7709       0.000       93.90       517.1       2527.       6.680      0.7570      0.3213E-01   0.000      0.2108       0.000       0.000       0.000        91.112     46.72       18.57      0.2000E+26  0.2000E+26   45.32      0.9181      0.2000E+26  0.2000E+26 -0.1000E-01
   381.0      0.3057E-01  0.7770       0.000       93.27       519.8       2524.       6.648      0.7622      0.3159E-01   0.000      0.2062       0.000       0.000       0.000        91.040     46.87       18.57      0.2000E+26  0.2000E+26   44.85      0.9217      0.2000E+26  0.2000E+26 -0.1000E-01
   381.2      0.3024E-01  0.7831       0.000       92.64       522.1       2521.       6.609      0.7673      0.3105E-01   0.000      0.2016       0.000       0.000       0.000        90.964     47.03       18.57      0.2000E+26  0.2000E+26   44.36      0.9251      0.2000E+26  0.2000E+26 -0.1000E-01
   381.4      0.2990E-01  0.7890       0.000       92.00       524.4       2518.       6.569      0.7725      0.3051E-01   0.000      0.1970       0.000       0.000       0.000        90.888     47.18       18.57      0.2000E+26  0.2000E+26   43.87      0.9285      0.2000E+26  0.2000E+26 -0.1000E-01
   381.6      0.2956E-01  0.7949       0.000       91.37       526.8       2515.       6.530      0.7776      0.2997E-01   0.000      0.1924       0.000       0.000       0.000        90.813     47.33       18.57      0.2000E+26  0.2000E+26   43.37      0.9317      0.2000E+26  0.2000E+26 -0.1000E-01
   381.8      0.2921E-01  0.8008       0.000       90.73       529.1       2512.       6.490      0.7817      0.2942E-01   0.000      0.1888       0.000       0.000       0.000        90.737     47.48       18.57      0.2000E+26  0.2000E+26   42.85      0.9348      0.2000E+26  0.2000E+26 -0.1000E-01
   382.0      0.2885E-01  0.8066       0.000       90.09       531.4       2509.       6.451      0.7855      0.2886E-01   0.000      0.1856       0.000       0.000       0.000        90.661     47.62       18.57      0.2000E+26  0.2000E+26   42.33      0.9378      0.2000E+26  0.2000E+26 -0.1000E-01
   382.2      0.2849E-01  0.8123       0.000       89.46       533.5       2506.       6.405      0.7891      0.2830E-01   0.000      0.1826       0.000       0.000       0.000        90.582     47.77       18.57      0.2000E+26  0.2000E+26   41.80      0.9406      0.2000E+26  0.2000E+26 -0.1000E-01
   382.4      0.2813E-01  0.8179       0.000       88.82       535.5       2502.       6.360      0.7926      0.2773E-01   0.000      0.1797       0.000       0.000       0.000        90.504     47.92       18.57      0.2000E+26  0.2000E+26   41.26      0.9434      0.2000E+26  0.2000E+26 -0.1000E-01
   382.6      0.2775E-01  0.8234       0.000       88.18       537.5       2499.       6.314      0.7958      0.2709E-01   0.000      0.1771       0.000       0.000       0.000        90.425     48.07       18.57      0.2000E+26  0.2000E+26   40.71      0.9461      0.2000E+26  0.2000E+26 -0.1000E-01
   382.8      0.2737E-01  0.8289       0.000       87.54       539.5       2496.       6.269      0.7989      0.2643E-01   0.000      0.1747       0.000       0.000       0.000        90.346     48.22       18.57      0.2000E+26  0.2000E+26   40.16      0.9486      0.2000E+26  0.2000E+26 -0.1000E-01
   383.0      0.2699E-01  0.8343       0.000       86.90       541.6       2493.       6.223      0.8016      0.2568E-01   0.000      0.1727       0.000       0.000       0.000        90.267     48.36       18.57      0.2000E+26  0.2000E+26   39.60      0.9511      0.2000E+26  0.2000E+26 -0.1000E-01
   383.2      0.2661E-01  0.8396       0.000       86.26       543.3       2490.       6.172      0.8043      0.2493E-01   0.000      0.1708       0.000       0.000       0.000        90.185     48.51       18.57      0.2000E+26  0.2000E+26   39.04      0.9534      0.2000E+26  0.2000E+26 -0.1000E-01
   383.4      0.2623E-01  0.8449       0.000       85.62       545.0       2487.       6.122      0.8070      0.2418E-01   0.000      0.1688       0.000       0.000       0.000        90.103     48.65       18.57      0.2000E+26  0.2000E+26   38.48      0.9557      0.2000E+26  0.2000E+26 -0.1000E-01
   383.6      0.2582E-01  0.8500       0.000       84.98       546.8       2483.       6.071      0.8096      0.2343E-01   0.000      0.1669       0.000       0.000       0.000        90.020     48.80       18.57      0.2000E+26  0.2000E+26   37.89      0.9579      0.2000E+26  0.2000E+26 -0.1000E-01
   383.8      0.2543E-01  0.8551       0.000       84.35       548.5       2480.       6.020      0.8121      0.2269E-01   0.000      0.1652       0.000       0.000       0.000        89.938     48.95       18.57      0.2000E+26  0.2000E+26   37.31      0.9600      0.2000E+26  0.2000E+26 -0.1000E-01
   384.0      0.2504E-01  0.8601       0.000       83.71       550.2       2477.       5.969      0.8144      0.2194E-01   0.000      0.1637       0.000       0.000       0.000        89.856     49.09       18.57      0.2000E+26  0.2000E+26   36.74      0.9620      0.2000E+26  0.2000E+26 -0.1000E-01
   384.2      0.2465E-01  0.8651       0.000       83.07       551.7       2473.       5.918      0.8165      0.2119E-01   0.000      0.1623       0.000       0.000       0.000        89.771     49.23       18.57      0.2000E+26  0.2000E+26   36.16      0.9639      0.2000E+26  0.2000E+26 -0.1000E-01
   384.4      0.2425E-01  0.8699       0.000       82.44       553.2       2470.       5.867      0.8187      0.2044E-01   0.000      0.1609       0.000       0.000       0.000        89.686     49.38       18.57      0.2000E+26  0.2000E+26   35.58      0.9657      0.2000E+26  0.2000E+26 -0.1000E-01
   384.6      0.2383E-01  0.8747       0.000       81.80       554.6       2467.       5.816      0.8208      0.1969E-01   0.000      0.1595       0.000       0.000       0.000        89.600     49.52       18.57      0.2000E+26  0.2000E+26   34.96      0.9675      0.2000E+26  0.2000E+26 -0.1000E-01
   384.8      0.2343E-01  0.8794       0.000       81.17       556.1       2463.       5.765      0.8229      0.1893E-01   0.000      0.1581       0.000       0.000       0.000        89.515     49.66       18.57      0.2000E+26  0.2000E+26   34.38      0.9692      0.2000E+26  0.2000E+26 -0.1000E-01
   385.0      0.2303E-01  0.8840       0.000       80.53       557.6       2460.       5.714      0.8251      0.1818E-01   0.000      0.1568       0.000       0.000       0.000        89.430     49.81       18.57      0.2000E+26  0.2000E+26   33.79      0.9708      0.2000E+26  0.2000E+26 -0.1000E-01
   385.2      0.2263E-01  0.8885       0.000       79.91       558.8       2456.       5.662      0.8262      0.1768E-01   0.000      0.1556      0.4591E-03   0.000       0.000        89.341     49.95       18.57      0.2000E+26  0.2000E+26   33.21      0.9723      0.2000E+26  0.2000E+26 -0.1000E-01
   385.4      0.2223E-01  0.8929       0.000       79.28       560.0       2453.       5.610      0.8274      0.1720E-01   0.000      0.1545      0.9416E-03   0.000       0.000        89.253     50.09       18.57      0.2000E+26  0.2000E+26   32.62      0.9738      0.2000E+26  0.2000E+26 -0.1000E-01
   385.6      0.2181E-01  0.8973       0.000       78.65       561.2       2449.       5.557      0.8282      0.1678E-01   0.000      0.1534      0.1556E-02   0.000       0.000        89.165     50.23       18.57      0.2000E+26  0.2000E+26   31.99      0.9752      0.2000E+26  0.2000E+26 -0.1000E-01
   385.8      0.2141E-01  0.9016       0.000       78.02       562.5       2446.       5.505      0.8291      0.1637E-01   0.000      0.1524      0.2170E-02   0.000       0.000        89.076     50.37       18.57      0.2000E+26  0.2000E+26   31.41      0.9765      0.2000E+26  0.2000E+26 -0.1000E-01
   386.0      0.2101E-01  0.9058       0.000       77.39       563.7       2442.       5.453      0.8300      0.1595E-01   0.000      0.1513      0.2785E-02   0.000       0.000        88.988     50.51       18.57      0.2000E+26  0.2000E+26   30.82      0.9778      0.2000E+26  0.2000E+26 -0.1000E-01
   386.2      0.2061E-01  0.9099       0.000       76.78       564.7       2439.       5.393      0.8308      0.1553E-01   0.000      0.1502      0.3399E-02   0.000       0.000        88.896     50.65       18.57      0.2000E+26  0.2000E+26   30.24      0.9790      0.2000E+26  0.2000E+26 -0.1000E-01
   386.4      0.2021E-01  0.9140       0.000       76.16       565.7       2435.       5.333      0.8317      0.1512E-01   0.000      0.1492      0.4013E-02   0.000       0.000        88.805     50.79       18.57      0.2000E+26  0.2000E+26   29.66      0.9801      0.2000E+26  0.2000E+26 -0.1000E-01
   386.6      0.1979E-01  0.9179       0.000       75.54       566.7       2431.       5.274      0.8326      0.1470E-01   0.000      0.1481      0.4628E-02   0.000       0.000        88.713     50.93       18.57      0.2000E+26  0.2000E+26   29.03      0.2000E+26  0.2000E+26  0.2000E+26 -0.1000E-01
   386.8      0.1939E-01  0.9218       0.000       74.92       567.7       2428.       5.214      0.8334      0.1429E-01   0.000      0.1470      0.5242E-02   0.000       0.000        88.622     51.07       18.57      0.2000E+26  0.2000E+26   28.45      0.9823      0.2000E+26  0.2000E+26 -0.1000E-01
   387.0      0.1847E-01  0.9255       0.000       74.30       568.7       2424.       5.155      0.2000E+26  0.2000E+26  0.2000E+26  0.2000E+26  0.2000E+26  0.2000E+26  0.2000E+26    88.622    0.2000E+26  0.2000E+26  0.2000E+26  0.2000E+26   27.09      0.9833      0.2000E+26  0.2000E+26 -0.1000E-01
   387.2      0.1759E-01  0.9290       0.000       73.67       569.5       2420.       5.074      0.2000E+26  0.2000E+26  0.2000E+26  0.2000E+26  0.2000E+26  0.2000E+26  0.2000E+26    88.622    0.2000E+26  0.2000E+26  0.2000E+26  0.2000E+26   25.80      0.9842      0.2000E+26  0.2000E+26 -0.1000E-01
   387.4      0.1675E-01  0.9324       0.000       73.05       570.3       2416.       4.994      0.2000E+26  0.2000E+26  0.2000E+26  0.2000E+26  0.2000E+26  0.2000E+26  0.2000E+26    88.622    0.2000E+26  0.2000E+26  0.2000E+26  0.2000E+26   24.57      0.9851      0.2000E+26  0.2000E+26 -0.1000E-01
   387.6      0.1592E-01  0.9355       0.000       72.43       571.1       2412.       4.913      0.2000E+26  0.2000E+26  0.2000E+26  0.2000E+26  0.2000E+26  0.2000E+26  0.2000E+26    88.622    0.2000E+26  0.2000E+26  0.2000E+26  0.2000E+26   23.35      0.9860      0.2000E+26  0.2000E+26 -0.1000E-01
   387.8      0.1517E-01  0.9386       0.000       71.80       571.9       2409.       4.833      0.2000E+26  0.2000E+26  0.2000E+26  0.2000E+26  0.2000E+26  0.2000E+26  0.2000E+26    88.622    0.2000E+26  0.2000E+26  0.2000E+26  0.2000E+26   22.25      0.9868      0.2000E+26  0.2000E+26 -0.1000E-01
   388.0      0.1445E-01  0.9415       0.000       71.18       572.7       2405.       4.752      0.2000E+26  0.2000E+26  0.2000E+26  0.2000E+26  0.2000E+26  0.2000E+26  0.2000E+26    88.622    0.2000E+26  0.2000E+26  0.2000E+26  0.2000E+26   21.20      0.9876      0.2000E+26  0.2000E+26 -0.1000E-01
   388.2      0.1377E-01  0.9442       0.000       70.56       573.3       2400.       4.664      0.2000E+26  0.2000E+26  0.2000E+26  0.2000E+26  0.2000E+26  0.2000E+26  0.2000E+26    88.622    0.2000E+26  0.2000E+26  0.2000E+26  0.2000E+26   20.20      0.9883      0.2000E+26  0.2000E+26 -0.1000E-01
   388.4      0.1312E-01  0.9468       0.000       69.93       573.9       2396.       4.577      0.2000E+26  0.2000E+26  0.2000E+26  0.2000E+26  0.2000E+26  0.2000E+26  0.2000E+26    88.622    0.2000E+26  0.2000E+26  0.2000E+26  0.2000E+26   19.25      0.9890      0.2000E+26  0.2000E+26 -0.1000E-01
   388.6      0.1247E-01  0.9493       0.000       69.31       574.5       2392.       4.489      0.2000E+26  0.2000E+26  0.2000E+26  0.2000E+26  0.2000E+26  0.2000E+26  0.2000E+26    88.622    0.2000E+26  0.2000E+26  0.2000E+26  0.2000E+26   18.30      0.9896      0.2000E+26  0.2000E+26 -0.1000E-01
   388.8      0.1189E-01  0.9517       0.000       68.69       575.2       2388.       4.401      0.2000E+26  0.2000E+26  0.2000E+26  0.2000E+26  0.2000E+26  0.2000E+26  0.2000E+26    88.622    0.2000E+26  0.2000E+26  0.2000E+26  0.2000E+26   17.44      0.9903      0.2000E+26  0.2000E+26 -0.1000E-01
   389.0      0.1133E-01  0.9540       0.000       68.06       575.8       2384.       4.314      0.2000E+26  0.2000E+26  0.2000E+26  0.2000E+26  0.2000E+26  0.2000E+26  0.2000E+26    88.622    0.2000E+26  0.2000E+26  0.2000E+26  0.2000E+26   16.62      0.9909      0.2000E+26  0.2000E+26 -0.1000E-01
   389.2      0.1080E-01  0.9561       0.000       67.45       576.2       2379.       4.226      0.2000E+26  0.2000E+26  0.2000E+26  0.2000E+26  0.2000E+26  0.2000E+26  0.2000E+26    88.622    0.2000E+26  0.2000E+26  0.2000E+26  0.2000E+26   15.84      0.9914      0.2000E+26  0.2000E+26 -0.1000E-01
   389.4      0.1029E-01  0.9582       0.000       66.84       576.7       2375.       4.139      0.2000E+26  0.2000E+26  0.2000E+26  0.2000E+26  0.2000E+26  0.2000E+26  0.2000E+26    88.622    0.2000E+26  0.2000E+26  0.2000E+26  0.2000E+26   15.10      0.9919      0.2000E+26  0.2000E+26 -0.1000E-01
   389.6      0.9787E-02  0.9601       0.000       66.22       577.2       2371.       4.052      0.2000E+26  0.2000E+26  0.2000E+26  0.2000E+26  0.2000E+26  0.2000E+26  0.2000E+26    88.622    0.2000E+26  0.2000E+26  0.2000E+26  0.2000E+26   14.36      0.9924      0.2000E+26  0.2000E+26 -0.1000E-01
   389.8      0.9331E-02  0.9620       0.000       65.61       577.6       2366.       3.965      0.2000E+26  0.2000E+26  0.2000E+26  0.2000E+26  0.2000E+26  0.2000E+26  0.2000E+26    88.622    0.2000E+26  0.2000E+26  0.2000E+26  0.2000E+26   13.69      0.9929      0.2000E+26  0.2000E+26 -0.1000E-01
   390.0      0.8896E-02  0.9638       0.000       65.00       578.1       2362.       3.877      0.2000E+26  0.2000E+26  0.2000E+26  0.2000E+26  0.2000E+26  0.2000E+26  0.2000E+26    88.622    0.2000E+26  0.2000E+26  0.2000E+26  0.2000E+26   13.05      0.9933      0.2000E+26  0.2000E+26 -0.1000E-01
   390.2      0.8482E-02  0.9655       0.000       64.40       578.4       2357.       3.795      0.2000E+26  0.2000E+26  0.2000E+26  0.2000E+26  0.2000E+26  0.2000E+26  0.2000E+26    88.622    0.2000E+26  0.2000E+26  0.2000E+26  0.2000E+26   12.44      0.9938      0.2000E+26  0.2000E+26 -0.1000E-01
   390.4      0.8092E-02  0.9671       0.000       63.81       578.8       2353.       3.712      0.2000E+26  0.2000E+26  0.2000E+26  0.2000E+26  0.2000E+26  0.2000E+26  0.2000E+26    88.622    0.2000E+26  0.2000E+26  0.2000E+26  0.2000E+26   11.87      0.9941      0.2000E+26  0.2000E+26 -0.1000E-01
   390.6      0.7702E-02  0.9687       0.000       63.21       579.1       2348.       3.630      0.2000E+26  0.2000E+26  0.2000E+26  0.2000E+26  0.2000E+26  0.2000E+26  0.2000E+26    88.622    0.2000E+26  0.2000E+26  0.2000E+26  0.2000E+26   11.30      0.9945      0.2000E+26  0.2000E+26 -0.1000E-01
   390.8      0.7353E-02  0.9701       0.000       62.62       579.5       2344.       3.547      0.2000E+26  0.2000E+26  0.2000E+26  0.2000E+26  0.2000E+26  0.2000E+26  0.2000E+26    88.622    0.2000E+26  0.2000E+26  0.2000E+26  0.2000E+26   10.79      0.9949      0.2000E+26  0.2000E+26 -0.1000E-01
   391.0      0.7019E-02  0.9715       0.000       62.02       579.8       2339.       3.464      0.2000E+26  0.2000E+26  0.2000E+26  0.2000E+26  0.2000E+26  0.2000E+26  0.2000E+26    88.622    0.2000E+26  0.2000E+26  0.2000E+26  0.2000E+26   10.30      0.9952      0.2000E+26  0.2000E+26 -0.1000E-01
   391.2      0.6699E-02  0.9729       0.000       61.45       580.1       2335.       3.388      0.2000E+26  0.2000E+26  0.2000E+26  0.2000E+26  0.2000E+26  0.2000E+26  0.2000E+26    88.622    0.2000E+26  0.2000E+26  0.2000E+26  0.2000E+26   9.828      0.9955      0.2000E+26  0.2000E+26 -0.1000E-01
   391.4      0.6394E-02  0.9741       0.000       60.88       580.4       2330.       3.312      0.2000E+26  0.2000E+26  0.2000E+26  0.2000E+26  0.2000E+26  0.2000E+26  0.2000E+26    88.622    0.2000E+26  0.2000E+26  0.2000E+26  0.2000E+26   9.381      0.9958      0.2000E+26  0.2000E+26 -0.1000E-01
   391.6      0.6102E-02  0.9754       0.000       60.30       580.6       2326.       3.237      0.2000E+26  0.2000E+26  0.2000E+26  0.2000E+26  0.2000E+26  0.2000E+26  0.2000E+26    88.622    0.2000E+26  0.2000E+26  0.2000E+26  0.2000E+26   8.953      0.9961      0.2000E+26  0.2000E+26 -0.1000E-01
   391.8      0.5823E-02  0.9765       0.000       59.73       580.9       2321.       3.161      0.2000E+26  0.2000E+26  0.2000E+26  0.2000E+26  0.2000E+26  0.2000E+26  0.2000E+26    88.622    0.2000E+26  0.2000E+26  0.2000E+26  0.2000E+26   8.543      0.2000E+26  0.2000E+26  0.2000E+26 -0.1000E-01
   392.0      0.5554E-02  0.9776       0.000       59.15       581.1       2317.       3.085      0.2000E+26  0.2000E+26  0.2000E+26  0.2000E+26  0.2000E+26  0.2000E+26  0.2000E+26    88.622    0.2000E+26  0.2000E+26  0.2000E+26  0.2000E+26   8.149      0.2000E+26  0.2000E+26  0.2000E+26 -0.1000E-01
   392.2      0.5298E-02  0.9787       0.000       58.60       581.3       2312.       3.016      0.2000E+26  0.2000E+26  0.2000E+26  0.2000E+26  0.2000E+26  0.2000E+26  0.2000E+26    88.622    0.2000E+26  0.2000E+26  0.2000E+26  0.2000E+26   7.773      0.2000E+26  0.2000E+26  0.2000E+26 -0.1000E-01
   392.4      0.5053E-02  0.9797       0.000       58.05       581.5       2307.       2.947      0.2000E+26  0.2000E+26  0.2000E+26  0.2000E+26  0.2000E+26  0.2000E+26  0.2000E+26    88.622    0.2000E+26  0.2000E+26  0.2000E+26  0.2000E+26   7.414      0.2000E+26  0.2000E+26  0.2000E+26 -0.1000E-01
   392.6      0.4820E-02  0.9807       0.000       57.51       581.7       2303.       2.878      0.2000E+26  0.2000E+26  0.2000E+26  0.2000E+26  0.2000E+26  0.2000E+26  0.2000E+26    88.622    0.2000E+26  0.2000E+26  0.2000E+26  0.2000E+26   7.071      0.2000E+26  0.2000E+26  0.2000E+26 -0.1000E-01
   392.8      0.4597E-02  0.9816       0.000       56.96       581.9       2298.       2.809      0.2000E+26  0.2000E+26  0.2000E+26  0.2000E+26  0.2000E+26  0.2000E+26  0.2000E+26    88.622    0.2000E+26  0.2000E+26  0.2000E+26  0.2000E+26   6.744      0.2000E+26  0.2000E+26  0.2000E+26 -0.1000E-01
   393.0      0.4385E-02  0.9825       0.000       56.41       582.1       2294.       2.741      0.2000E+26  0.2000E+26  0.2000E+26  0.2000E+26  0.2000E+26  0.2000E+26  0.2000E+26    88.622    0.2000E+26  0.2000E+26  0.2000E+26  0.2000E+26   6.433      0.2000E+26  0.2000E+26  0.2000E+26 -0.1000E-01
   393.2      0.4182E-02  0.9833       0.000       55.88       582.2       2289.       2.679      0.2000E+26  0.2000E+26  0.2000E+26  0.2000E+26  0.2000E+26  0.2000E+26  0.2000E+26    88.622    0.2000E+26  0.2000E+26  0.2000E+26  0.2000E+26   6.135      0.2000E+26  0.2000E+26  0.2000E+26 -0.1000E-01
   393.4      0.3988E-02  0.9841       0.000       55.36       582.4       2284.       2.617      0.2000E+26  0.2000E+26  0.2000E+26  0.2000E+26  0.2000E+26  0.2000E+26  0.2000E+26    88.622    0.2000E+26  0.2000E+26  0.2000E+26  0.2000E+26   5.851      0.2000E+26  0.2000E+26  0.2000E+26 -0.1000E-01
   393.6      0.3803E-02  0.9849       0.000       54.83       582.5       2280.       2.556      0.2000E+26  0.2000E+26  0.2000E+26  0.2000E+26  0.2000E+26  0.2000E+26  0.2000E+26    88.622    0.2000E+26  0.2000E+26  0.2000E+26  0.2000E+26   5.580      0.2000E+26  0.2000E+26  0.2000E+26 -0.1000E-01
   393.8      0.3627E-02  0.9856       0.000       54.31       582.6       2275.       2.494      0.2000E+26  0.2000E+26  0.2000E+26  0.2000E+26  0.2000E+26  0.2000E+26  0.2000E+26    88.622    0.2000E+26  0.2000E+26  0.2000E+26  0.2000E+26   5.321      0.2000E+26  0.2000E+26  0.2000E+26 -0.1000E-01
   394.0      0.3460E-02  0.9863       0.000       53.78       582.8       2271.       2.432      0.2000E+26  0.2000E+26  0.2000E+26  0.2000E+26  0.2000E+26  0.2000E+26  0.2000E+26    88.622    0.2000E+26  0.2000E+26  0.2000E+26  0.2000E+26   5.077      0.2000E+26  0.2000E+26  0.2000E+26 -0.1000E-01
   394.2      0.3301E-02  0.9869       0.000       53.29       582.9       2266.       2.377      0.2000E+26  0.2000E+26  0.2000E+26  0.2000E+26  0.2000E+26  0.2000E+26  0.2000E+26    88.622    0.2000E+26  0.2000E+26  0.2000E+26  0.2000E+26   4.843      0.2000E+26  0.2000E+26  0.2000E+26 -0.1000E-01
   394.4      0.3149E-02  0.9876       0.000       52.79       583.0       2261.       2.323      0.2000E+26  0.2000E+26  0.2000E+26  0.2000E+26  0.2000E+26  0.2000E+26  0.2000E+26    88.622    0.2000E+26  0.2000E+26  0.2000E+26  0.2000E+26   4.620      0.2000E+26  0.2000E+26  0.2000E+26 -0.1000E-01
   394.6      0.3004E-02  0.9882       0.000       52.29       583.1       2257.       2.268      0.2000E+26  0.2000E+26  0.2000E+26  0.2000E+26  0.2000E+26  0.2000E+26  0.2000E+26    88.622    0.2000E+26  0.2000E+26  0.2000E+26  0.2000E+26   4.407      0.2000E+26  0.2000E+26  0.2000E+26 -0.1000E-01
   394.8      0.2865E-02  0.9887       0.000       51.79       583.2       2252.       2.213      0.2000E+26  0.2000E+26  0.2000E+26  0.2000E+26  0.2000E+26  0.2000E+26  0.2000E+26    88.622    0.2000E+26  0.2000E+26  0.2000E+26  0.2000E+26   4.203      0.2000E+26  0.2000E+26  0.2000E+26 -0.1000E-01
   395.0      0.2732E-02  0.9893       0.000       51.30       583.3       2248.       2.158      0.2000E+26  0.2000E+26  0.2000E+26  0.2000E+26  0.2000E+26  0.2000E+26  0.2000E+26    88.622    0.2000E+26  0.2000E+26  0.2000E+26  0.2000E+26   4.009      0.2000E+26  0.2000E+26  0.2000E+26 -0.1000E-01
   395.2      0.2606E-02  0.9898       0.000       50.82       583.4       2243.       2.110      0.2000E+26  0.2000E+26  0.2000E+26  0.2000E+26  0.2000E+26  0.2000E+26  0.2000E+26    88.622    0.2000E+26  0.2000E+26  0.2000E+26  0.2000E+26   3.823      0.2000E+26  0.2000E+26  0.2000E+26 -0.1000E-01
   395.4      0.2485E-02  0.9903       0.000       50.35       583.5       2239.       2.061      0.2000E+26  0.2000E+26  0.2000E+26  0.2000E+26  0.2000E+26  0.2000E+26  0.2000E+26    88.622    0.2000E+26  0.2000E+26  0.2000E+26  0.2000E+26   3.645      0.2000E+26  0.2000E+26  0.2000E+26 -0.1000E-01
   395.6      0.2369E-02  0.9908       0.000       49.88       583.5       2234.       2.013      0.2000E+26  0.2000E+26  0.2000E+26  0.2000E+26  0.2000E+26  0.2000E+26  0.2000E+26    88.622    0.2000E+26  0.2000E+26  0.2000E+26  0.2000E+26   3.475      0.2000E+26  0.2000E+26  0.2000E+26 -0.1000E-01
   395.8      0.2258E-02  0.9912       0.000       49.41       583.6       2230.       1.964      0.2000E+26  0.2000E+26  0.2000E+26  0.2000E+26  0.2000E+26  0.2000E+26  0.2000E+26    88.622    0.2000E+26  0.2000E+26  0.2000E+26  0.2000E+26   3.313      0.2000E+26  0.2000E+26  0.2000E+26 -0.1000E-01
   396.0      0.2153E-02  0.9917       0.000       48.94       583.7       2225.       1.916      0.2000E+26  0.2000E+26  0.2000E+26  0.2000E+26  0.2000E+26  0.2000E+26  0.2000E+26    88.622    0.2000E+26  0.2000E+26  0.2000E+26  0.2000E+26   3.158      0.2000E+26  0.2000E+26  0.2000E+26 -0.1000E-01
   396.2      0.2052E-02  0.9921       0.000       48.49       583.7       2221.       1.873      0.2000E+26  0.2000E+26  0.2000E+26  0.2000E+26  0.2000E+26  0.2000E+26  0.2000E+26    88.622    0.2000E+26  0.2000E+26  0.2000E+26  0.2000E+26   3.010      0.2000E+26  0.2000E+26  0.2000E+26 -0.1000E-01
   396.4      0.1956E-02  0.9925       0.000       48.04       583.8       2216.       1.831      0.2000E+26  0.2000E+26  0.2000E+26  0.2000E+26  0.2000E+26  0.2000E+26  0.2000E+26    88.622    0.2000E+26  0.2000E+26  0.2000E+26  0.2000E+26   2.869      0.2000E+26  0.2000E+26  0.2000E+26 -0.1000E-01
   396.6      0.1864E-02  0.9928       0.000       47.60       583.9       2212.       1.788      0.2000E+26  0.2000E+26  0.2000E+26  0.2000E+26  0.2000E+26  0.2000E+26  0.2000E+26    88.622    0.2000E+26  0.2000E+26  0.2000E+26  0.2000E+26   2.734      0.2000E+26  0.2000E+26  0.2000E+26 -0.1000E-01
   396.8      0.1776E-02  0.9932       0.000       47.15       583.9       2207.       1.745      0.2000E+26  0.2000E+26  0.2000E+26  0.2000E+26  0.2000E+26  0.2000E+26  0.2000E+26    88.622    0.2000E+26  0.2000E+26  0.2000E+26  0.2000E+26   2.605      0.2000E+26  0.2000E+26  0.2000E+26 -0.1000E-01
   397.0      0.1692E-02  0.9935       0.000       46.70       584.0       2203.       1.702      0.2000E+26  0.2000E+26  0.2000E+26  0.2000E+26  0.2000E+26  0.2000E+26  0.2000E+26    88.622    0.2000E+26  0.2000E+26  0.2000E+26  0.2000E+26   2.482      0.2000E+26  0.2000E+26  0.2000E+26 -0.1000E-01
   397.2      0.1612E-02  0.9939       0.000       46.28       584.0       2198.       1.665      0.2000E+26  0.2000E+26  0.2000E+26  0.2000E+26  0.2000E+26  0.2000E+26  0.2000E+26    88.622    0.2000E+26  0.2000E+26  0.2000E+26  0.2000E+26   2.365      0.2000E+26  0.2000E+26  0.2000E+26 -0.1000E-01
   397.4      0.1535E-02  0.9942       0.000       45.86       584.0       2194.       1.627      0.2000E+26  0.2000E+26  0.2000E+26  0.2000E+26  0.2000E+26  0.2000E+26  0.2000E+26    88.622    0.2000E+26  0.2000E+26  0.2000E+26  0.2000E+26   2.253      0.2000E+26  0.2000E+26  0.2000E+26 -0.1000E-01
   397.6      0.1462E-02  0.9945       0.000       45.43       584.1       2189.       1.590      0.2000E+26  0.2000E+26  0.2000E+26  0.2000E+26  0.2000E+26  0.2000E+26  0.2000E+26    88.622    0.2000E+26  0.2000E+26  0.2000E+26  0.2000E+26   2.146      0.2000E+26  0.2000E+26  0.2000E+26 -0.1000E-01
   397.8      0.1393E-02  0.9947       0.000       45.01       584.1       2185.       1.552      0.2000E+26  0.2000E+26  0.2000E+26  0.2000E+26  0.2000E+26  0.2000E+26  0.2000E+26    88.622    0.2000E+26  0.2000E+26  0.2000E+26  0.2000E+26   2.043      0.2000E+26  0.2000E+26  0.2000E+26 -0.1000E-01
   398.0      0.1326E-02  0.9950       0.000       44.59       584.2       2180.       1.514      0.2000E+26  0.2000E+26  0.2000E+26  0.2000E+26  0.2000E+26  0.2000E+26  0.2000E+26    88.622    0.2000E+26  0.2000E+26  0.2000E+26  0.2000E+26   1.946      0.2000E+26  0.2000E+26  0.2000E+26 -0.1000E-01
   398.2       0.000      0.9950       0.000       44.18       584.2       2176.       1.475      0.2000E+26  0.2000E+26  0.2000E+26  0.2000E+26  0.2000E+26  0.2000E+26  0.2000E+26    88.622    0.2000E+26  0.2000E+26  0.2000E+26  0.2000E+26   0.000      0.2000E+26  0.2000E+26  0.2000E+26 -0.1000E-01
 
