 Legend
 2020-12-24 19-01-31 "4L9.1/9.5" ||| Режим: #1 : n=4000 об/мин; ^^^режим, n=4000, уовт=13, степень сжатия=21.24^^^
 Файл : 4_valves.tpl
 
.DSL4N1   Rus   PistMove   Step=0.20   Stroke=   95.00    
   ПАРАМЕТРЫ ВПРЫСКА, СМЕСЕОБРАЗОВАНИЯ, ТЕПЛОВЫДЕЛЕНИЯ И САЖЕОБРАЗОВАНИЯ 
 Comment
 Fi          Угол поворота коленчатого вала, [град.]                     
 dx/dFi      Скорость тепловыделения [1/град.]                           
 x           Доля выделившегося тепла                                    
 Uo          Скорость истечения топлива, [м/c]                           
 Pвпр        Давление перед соплами распылителя, [бар]                   
 NOx         Концентрация оксидов азота, [ppm]                           
 T_burn      Температура в зоне сгорания,[K]                             
 Soot        Концентрация сажевых частиц в цилиндре, [г/м3]              
 S_обол      Доля топлива в оболочке струи и пристеночного потока        
 S_ядр.C     Доля топлива в ядре свободной струи                         
 S_фронт     Доля топлива во фронте свободной струи                      
 S_ядр.W     Доля топлива в ядре пристеночного потока                    
 S_яд.Ws     Доля топлива в зонах пересечени пристеночных потоков        
 S_крыш      Доля топлива осевшего на поверхности крышки цилиндра        
 S_цил       Доля топлива осевшего на поверхности зеркала цилиндра       
 P_pist      Позиция поршня относительно НМТ, [мм]                       
 Spray_tip   Длина свободной струи без учета вихря, мм                   
 Spray_ang   Угол раскрытия внешнего контура струи, град.                
 Evap_zon    Доля испарившегося топлива в зонной модели                  
 Evap_1p     Доля испарившегося топлива (для порции #1)                  
 HRR         Скорость тепловыделения, [Дж/град.]                         
 Ksi_b       Степень эффективности использования воздушного заряда       
 I_LW_1p     Интеграл Livengood-Wu для порц. №1 (модиф. уравн. Толстова) 
 SMD         Средний диаметр капель по Заутеру, [мкм]                    
 Inj_pofile  Характеристика впрыска (безразмерная)                       
 Names
  Fi          dx/dFi      x           Uo          Pвпр        NOx         T_burn      Soot        S_обол      S_ядр.C     S_фронт     S_ядр.W     S_яд.Ws     S_крыш      S_цил       P_pist      Spray_tip   Spray_ang   Evap_zon    Evap_1p     HRR         Ksi_b       I_LW_1p     SMD         Inj_pofile
 Arrays
   347.0       0.000       0.000       0.000       73.28       0.000       987.1      0.8346E-01   0.000       0.000       0.000       0.000       0.000       0.000       0.000        93.465    0.2000E+26   65.66       0.000      0.2000E+26   0.000      0.2000E+26   0.000      0.2000E+26 -0.1000E-01
   347.2       0.000       0.000       23.28       84.05       0.000       989.4      0.8346E-01  0.5118E-03  0.7332E-04  0.4573E-06   0.000       0.000       0.000       0.000        93.510     1.795       49.12      0.8564E-04  0.2523E-06   0.000      0.2000E+26  0.4039E-01   58.38     -0.9423E-02
   347.4       0.000       0.000       46.56       94.80       0.000       991.7      0.8346E-01  0.1127E-02  0.1843E-03  0.1655E-05   0.000       0.000       0.000       0.000        93.556     3.379       36.58      0.2887E-03  0.1994E-05   0.000      0.2000E+26  0.8119E-01   40.37     -0.8845E-02
   347.6       0.000       0.000       69.83       105.6       0.000       993.9      0.8346E-01  0.2391E-02  0.5303E-03  0.7471E-05   0.000       0.000       0.000       0.000        93.601     4.496       33.20      0.6851E-03  0.7504E-05   0.000      0.2000E+26  0.1224       32.22     -0.8268E-02
   347.8       0.000       0.000       93.11       116.3       0.000       996.2      0.8346E-01  0.3813E-02  0.9885E-03  0.1887E-04   0.000       0.000       0.000       0.000        93.646     5.476       31.14      0.1331E-02  0.2003E-04   0.000      0.2000E+26  0.1640       27.65     -0.7690E-02
   348.0       0.000       0.000       116.4       127.1       0.000       998.5      0.8346E-01  0.5651E-02  0.1740E-02  0.4487E-04   0.000       0.000       0.000       0.000        93.691     6.371       29.65      0.2261E-02  0.4379E-04   0.000      0.2000E+26  0.2060       24.56     -0.7113E-02
   348.2       0.000       0.000       139.5       154.3       0.000       1001.      0.8347E-01  0.7678E-02  0.2703E-02  0.8952E-04   0.000       0.000       0.000       0.000        93.733     7.208       28.46      0.3487E-02  0.8396E-04   0.000      0.2000E+26  0.2485       22.30     -0.6539E-02
   348.4       0.000       0.000       162.1       181.5       0.000       1003.      0.8348E-01  0.9973E-02  0.3964E-02  0.1605E-03   0.000       0.000       0.000       0.000        93.774     7.997       27.50      0.5004E-02  0.1464E-03   0.000      0.2000E+26  0.2913       20.59     -0.5979E-02
   348.6       0.000       0.000       184.6       208.7       0.000       1005.      0.8348E-01  0.1245E-01  0.5540E-02  0.2773E-03   0.000       0.000       0.000       0.000        93.816     8.746       26.69      0.6762E-02  0.2384E-03   0.000      0.2000E+26  0.3345       19.03     -0.5420E-02
   348.8       0.000       0.000       207.1       236.0       0.000       1007.      0.8349E-01  0.1508E-01  0.7370E-02  0.4310E-03   0.000       0.000       0.000       0.000        93.857     9.459       26.00      0.8716E-02  0.3678E-03   0.000      0.2000E+26  0.3782       17.90     -0.4862E-02
   349.0       0.000       0.000       229.6       263.2       0.000       1009.      0.8350E-01  0.1789E-01  0.9600E-02  0.6649E-03   0.000       0.000       0.000       0.000        93.899     10.14       25.41      0.1087E-01  0.5431E-03   0.000      0.2000E+26  0.4222       16.95     -0.4304E-02
   349.2       0.000       0.000       252.1       298.6       0.000       1011.      0.7628E-01  0.2078E-01  0.1201E-01  0.9346E-03   0.000       0.000       0.000       0.000        93.937     10.79       24.89      0.1324E-01  0.7734E-03   0.000      0.2000E+26  0.4667       16.13     -0.3746E-02
   349.4       0.000       0.000       273.4       334.0       0.000       1012.      0.6907E-01  0.2377E-01  0.1491E-01  0.1352E-02   0.000       0.000       0.000       0.000        93.975     11.42       24.43      0.1582E-01  0.1069E-02   0.000      0.2000E+26  0.5115       15.44     -0.3217E-02
   349.6       0.000       0.000       287.8       369.5       0.000       1014.      0.6186E-01  0.2678E-01  0.1791E-01  0.1801E-02   0.000       0.000       0.000       0.000        94.013     12.02       24.01      0.1861E-01  0.1436E-02   0.000      0.2000E+26  0.5568       14.90     -0.2861E-02
   349.8       0.000       0.000       302.1       404.9       0.000       1016.      0.5465E-01  0.2977E-01  0.2130E-01  0.2445E-02   0.000       0.000       0.000       0.000        94.051     12.61       23.64      0.2160E-01  0.1884E-02   0.000      0.2000E+26  0.6024       14.52     -0.2505E-02
   350.0       0.000       0.000       316.5       440.3       0.000       1018.      0.4744E-01  0.3275E-01  0.2476E-01  0.3126E-02   0.000       0.000       0.000       0.000        94.089     13.18       23.29      0.2480E-01  0.2417E-02   0.000      0.2000E+26  0.6484       14.16     -0.2149E-02
   350.2       0.000       0.000       330.8       453.2       0.000       1019.      0.4323E-01  0.3569E-01  0.2859E-01  0.4059E-02   0.000       0.000       0.000       0.000        94.124     13.73       22.97      0.2820E-01  0.3045E-02   0.000      0.2000E+26  0.6949       13.83     -0.1793E-02
   350.4       0.000       0.000       345.2       466.2       0.000       1021.      0.3902E-01  0.3860E-01  0.3247E-01  0.5064E-02   0.000       0.000       0.000       0.000        94.158     14.26       22.69      0.3181E-01  0.3773E-02   0.000      0.2000E+26  0.7417       13.52     -0.1437E-02
   350.6       0.000       0.000       354.8       479.1       0.000       1023.      0.3481E-01  0.4144E-01  0.3651E-01  0.6294E-02   0.000       0.000       0.000       0.000        94.193     14.77       22.42      0.3563E-01  0.4610E-02   0.000      0.2000E+26  0.7888       13.22     -0.1200E-02
   350.8       0.000       0.000       355.5       492.0       0.000       1024.      0.3060E-01  0.4417E-01  0.4054E-01  0.7659E-02   0.000       0.000       0.000       0.000        94.227     15.28       22.17      0.3963E-01  0.5552E-02   0.000      0.2000E+26  0.8364       13.20     -0.1182E-02
   351.0       0.000       0.000       354.7       504.9       0.000       1026.      0.2639E-01  0.4674E-01  0.4452E-01  0.9240E-02   0.000       0.000       0.000       0.000        94.262     15.77       21.94      0.4383E-01  0.6599E-02   0.000      0.2000E+26  0.8843       13.22     -0.1202E-02
   351.2       0.000       0.000       353.9       506.8      0.3506E-02   1091.      0.2403E-01  0.4922E-01  0.4838E-01  0.1103E-01   0.000       0.000       0.000       0.000        94.293     16.24       21.72      0.4820E-01  0.7747E-02   0.000      0.2000E+26  0.9327       13.23     -0.1221E-02
   351.4       0.000       0.000       353.1       508.8      0.7011E-02   1156.      0.2168E-01  0.5160E-01  0.5212E-01  0.1302E-01   0.000       0.000       0.000       0.000        94.324     16.71       21.52      0.5274E-01  0.8995E-02   0.000      0.2000E+26  0.9814       13.25     -0.1240E-02
   351.6       0.000       0.000       352.4       510.8      0.1052E-01   1221.      0.1932E-01  0.5390E-01  0.5566E-01  0.1528E-01   0.000       0.000       0.000       0.000        94.354     17.16       21.33      0.5745E-01  0.1034E-01   0.000      0.2000E+26   1.000       13.17     -0.1259E-02
   351.8       0.000       0.000       352.9       512.7      0.1402E-01   1286.      0.1696E-01  0.5618E-01  0.5910E-01  0.1766E-01   0.000       0.000       0.000       0.000        94.385     17.60       21.15      0.6231E-01  0.1179E-01   0.000      0.2000E+26  0.2000E+26   13.15     -0.1246E-02
   352.0      0.6359E-06  0.1272E-06   354.8       514.7      0.1753E-01   1351.      0.1460E-01  0.5844E-01  0.6234E-01  0.2033E-01   0.000       0.000       0.000       0.000        94.416     18.03       20.98      0.6733E-01  0.2000E+26  0.9329E-03  0.9980      0.2000E+26   13.12     -0.1198E-02
   352.2      0.2162E-03  0.4337E-04   357.1       519.2      0.8811E-01   1607.      0.1020      0.6070E-01  0.6553E-01  0.2307E-01   0.000       0.000       0.000       0.000        94.444     18.46       20.81      0.7249E-01  0.2000E+26  0.3172      0.9790      0.2000E+26   13.07     -0.1141E-02
   352.4      0.8587E-03  0.2151E-03   359.5       523.7      0.1587       1863.      0.1894      0.6301E-01  0.6846E-01  0.2609E-01   0.000       0.000       0.000       0.000        94.471     18.87       20.66      0.7780E-01  0.2000E+26   1.260      0.9600      0.2000E+26   13.03     -0.1083E-02
   352.6      0.1722E-02  0.5595E-03   361.8       528.3      0.2293       2119.      0.2767      0.6534E-01  0.7135E-01  0.2916E-01   0.000       0.000       0.000       0.000        94.498     19.27       20.52      0.8325E-01  0.2000E+26   2.526      0.9411      0.2000E+26   12.88     -0.1025E-02
   352.8      0.2688E-02  0.1097E-02   364.1       532.8      0.2998       2375.      0.3641      0.6780E-01  0.7386E-01  0.3256E-01   0.000       0.000       0.000       0.000        94.525     19.66       20.38      0.8884E-01  0.2000E+26   3.943      0.9222      0.2000E+26   12.84     -0.9675E-03
   353.0      0.3651E-02  0.1827E-02   365.2       537.3      0.3704       2631.      0.4515      0.7031E-01  0.7630E-01  0.3599E-01   0.000       0.000       0.000       0.000        94.553     20.05       20.25      0.9455E-01  0.2000E+26   5.356      0.9035      0.2000E+26   12.82     -0.9408E-03
   353.2      0.5046E-02  0.2836E-02   365.1       537.4      0.7638       2630.       1.168      0.7295E-01  0.7849E-01  0.3954E-01   0.000       0.000       0.000       0.000        94.576     20.42       20.12      0.1004      0.2000E+26   7.404      0.8849      0.2000E+26   12.82     -0.9440E-03
   353.4      0.2426E-01  0.7688E-02   364.7       537.4       1.157       2628.       1.884      0.7566E-01  0.8068E-01  0.4300E-01   0.000       0.000       0.000       0.000        94.600     20.79       20.00      0.1063      0.2000E+26   35.59      0.8663      0.2000E+26   12.83     -0.9535E-03
   353.6      0.3040E-01  0.1377E-01   364.3       537.4       1.551       2627.       2.600      0.7852E-01  0.8287E-01  0.4631E-01   0.000       0.000       0.000       0.000        94.624     21.15       19.89      0.1124      0.2000E+26   44.60      0.8480      0.2000E+26   12.76     -0.9631E-03
   353.8      0.3074E-01  0.1992E-01   363.9       537.4       1.944       2626.       3.316      0.8150E-01  0.8532E-01  0.4925E-01   0.000       0.000       0.000       0.000        94.648     21.51       19.78      0.1186      0.2000E+26   45.09      0.8298      0.2000E+26   12.76     -0.9727E-03
   354.0      0.3079E-01  0.2607E-01   363.8       537.4       2.337       2625.       4.032      0.8459E-01  0.8803E-01  0.5181E-01   0.000       0.000       0.000       0.000        94.671     21.85       19.67      0.1248      0.2000E+26   45.17      0.8119      0.2000E+26   12.76     -0.9748E-03
   354.2      0.3060E-01  0.3219E-01   364.7       544.8       3.333       2628.       4.450      0.8786E-01  0.9081E-01  0.5414E-01   0.000       0.000       0.000       0.000        94.691     22.19       19.57      0.1312      0.2000E+26   44.90      0.7941      0.2000E+26   12.75     -0.9531E-03
   354.4      0.3035E-01  0.3827E-01   367.0       552.1       4.329       2631.       4.868      0.9125E-01  0.9364E-01  0.5635E-01   0.000       0.000       0.000       0.000        94.711     22.52       19.48      0.1376      0.2000E+26   44.53      0.7766      0.2000E+26   12.70     -0.8956E-03
   354.6      0.3402E-01  0.4507E-01   369.6       559.5       5.325       2634.       5.287      0.9499E-01  0.9605E-01  0.5872E-01   0.000       0.000       0.000       0.000        94.731     22.84       19.38      0.1441      0.2000E+26   49.91      0.7594      0.2000E+26   12.59     -0.8316E-03
   354.8      0.3478E-01  0.5203E-01   372.2       566.8       6.321       2637.       5.705      0.9884E-01  0.9832E-01  0.6114E-01   0.000       0.000       0.000       0.000        94.752     23.16       19.29      0.1507      0.2000E+26   51.03      0.7424      0.2000E+26   12.54     -0.7676E-03
   355.0      0.3419E-01  0.5886E-01   374.8       574.2       7.316       2640.       6.124      0.1031      0.1004      0.6346E-01   0.000       0.000       0.000       0.000        94.772     23.47       19.21      0.1573      0.2000E+26   50.16      0.7257      0.2000E+26   12.49     -0.7036E-03
   355.2      0.3365E-01  0.6559E-01   376.7       572.3       9.155       2644.       6.240      0.1074      0.1024      0.6576E-01   0.000       0.000       0.000       0.000        94.788     23.78       19.12      0.1641      0.2000E+26   49.36      0.7093      0.2000E+26   12.46     -0.6549E-03
   355.4      0.3316E-01  0.7223E-01   378.1       570.4       10.99       2648.       6.356      0.1122      0.1043      0.6770E-01   0.000       0.000       0.000       0.000        94.804     24.08       19.04      0.1708      0.2000E+26   48.65      0.6933      0.2000E+26   12.44     -0.6215E-03
   355.6      0.3275E-01  0.7878E-01   377.0       568.5       12.83       2651.       6.472      0.1171      0.1063      0.6953E-01   0.000       0.000       0.000       0.000        94.821     24.37       18.97      0.1776      0.2000E+26   48.05      0.6776      0.2000E+26   12.39     -0.6470E-03
   355.8      0.3206E-01  0.8519E-01   376.0       566.6       14.67       2655.       6.588      0.1222      0.1084      0.7089E-01   0.000       0.000       0.000       0.000        94.837     24.66       18.89      0.1845      0.2000E+26   47.04      0.6623      0.2000E+26   12.41     -0.6725E-03
   356.0      0.3194E-01  0.9158E-01   375.0       564.7       16.51       2659.       6.705      0.1274      0.1106      0.7214E-01   0.000       0.000       0.000       0.000        94.854     24.94       18.82      0.1914      0.2000E+26   46.87      0.6474      0.2000E+26   12.43     -0.6979E-03
   356.2      0.3181E-01  0.9794E-01   374.0       554.7       19.38       2662.       6.718      0.1329      0.1126      0.7315E-01   0.000       0.000       0.000       0.000        94.867     25.22       18.77      0.1983      0.2000E+26   46.67      0.6329      0.2000E+26   12.45     -0.7234E-03
   356.4      0.3167E-01  0.1043       372.3       544.8       22.25       2666.       6.732      0.1386      0.1143      0.7426E-01   0.000       0.000       0.000       0.000        94.879     25.51       18.77      0.2053      0.2000E+26   46.46      0.6188      0.2000E+26   12.48     -0.7639E-03
   356.6      0.3151E-01  0.1106       369.6       534.8       25.12       2669.       6.746      0.1446      0.1155      0.7550E-01   0.000       0.000       0.000       0.000        94.892     25.79       18.78      0.2123      0.2000E+26   46.23      0.6050      0.2000E+26   12.48     -0.8318E-03
   356.8      0.3135E-01  0.1168       365.7       524.8       27.98       2672.       6.759      0.1506      0.1166      0.7679E-01   0.000       0.000       0.000       0.000        94.905     26.05       18.78      0.2193      0.2000E+26   45.99      0.5918      0.2000E+26   12.55     -0.9284E-03
   357.0      0.3116E-01  0.1231       361.4       514.8       30.85       2676.       6.773      0.1566      0.1175      0.7813E-01   0.000       0.000       0.000       0.000        94.918     26.32       18.78      0.2263      0.2000E+26   45.72      0.5790      0.2000E+26   12.63     -0.1035E-02
   357.2      0.3097E-01  0.1293       357.1       514.5       34.87       2679.       6.737      0.1633      0.1180      0.7913E-01   0.000       0.000       0.000       0.000        94.927     26.58       18.78      0.2334      0.2000E+26   45.43      0.5666      0.2000E+26   12.71     -0.1142E-02
   357.4      0.3077E-01  0.1354       352.8       514.2       38.88       2682.       6.702      0.1703      0.1182      0.8001E-01   0.000       0.000       0.000       0.000        94.936     26.84       18.78      0.2405      0.2000E+26   45.14      0.5547      0.2000E+26   12.79     -0.1248E-02
   357.6      0.3056E-01  0.1415       348.5       513.9       42.90       2684.       6.666      0.1778      0.1179      0.8083E-01   0.000       0.000       0.000       0.000        94.945     27.10       18.78      0.2476      0.2000E+26   44.83      0.5433      0.2000E+26   12.84     -0.1355E-02
   357.8      0.3034E-01  0.1476       348.6       513.6       46.91       2687.       6.631      0.1854      0.1175      0.8162E-01  0.3246E-04   0.000       0.000       0.000        94.954     27.35       18.78      0.2547      0.2000E+26   44.51      0.5324      0.2000E+26   12.84     -0.1352E-02
   358.0      0.3011E-01  0.1536       350.1       513.3       50.93       2690.       6.595      0.1931      0.1170      0.7850E-01  0.4004E-02   0.000       0.000       0.000        94.963     27.60       18.78      0.2619      0.2000E+26   44.17      0.5219      0.2000E+26   12.81     -0.1314E-02
   358.2      0.2985E-01  0.1596       352.0       518.2       56.10       2693.       6.536      0.2009      0.1163      0.7521E-01  0.8359E-02   0.000       0.000       0.000        94.969     27.85       18.78      0.2691      0.2000E+26   43.79      0.5120      0.2000E+26   12.77     -0.1268E-02
   358.4      0.2959E-01  0.1655       353.9       523.1       61.28       2695.       6.477      0.2086      0.1143      0.7098E-01  0.1495E-01   0.000       0.000       0.000        94.974     28.10       18.78      0.2763      0.2000E+26   43.41      0.5025      0.2000E+26   12.73     -0.1222E-02
   358.6      0.2933E-01  0.1714       355.7       528.0       66.45       2697.       6.419      0.2161      0.1125      0.6676E-01  0.2166E-01   0.000       0.000       0.000        94.980     28.35       18.78      0.2837      0.2000E+26   43.02      0.4936      0.2000E+26   12.67     -0.1176E-02
   358.8      0.2907E-01  0.1772       357.5       532.9       71.63       2700.       6.360      0.2229      0.1110      0.6256E-01  0.2870E-01   0.000       0.000       0.000        94.985     28.59       18.78      0.2911      0.2000E+26   42.64      0.4852      0.2000E+26   12.64     -0.1131E-02
   359.0      0.2881E-01  0.1830       359.2       537.7       76.80       2702.       6.301      0.2298      0.1098      0.5812E-01  0.3584E-01   0.000       0.000       0.000        94.991     28.83       18.78      0.2986      0.2000E+26   42.27      0.4773      0.2000E+26   12.61     -0.1089E-02
   359.2      0.2856E-01  0.1887       360.9       541.3       83.04       2704.       6.237      0.2365      0.1088      0.5337E-01  0.4312E-01   0.000       0.000       0.000        94.993     29.07       18.78      0.3062      0.2000E+26   41.89      0.4699      0.2000E+26   12.58     -0.1049E-02
   359.4      0.2831E-01  0.1943       362.5       544.9       89.28       2705.       6.174      0.2432      0.1082      0.4832E-01  0.5038E-01   0.000       0.000       0.000        94.995     29.31       18.78      0.3138      0.2000E+26   41.53      0.4631      0.2000E+26   12.55     -0.1009E-02
   359.6      0.2807E-01  0.1999       364.1       548.4       95.52       2707.       6.110      0.2499      0.1080      0.4303E-01  0.5761E-01   0.000       0.000       0.000        94.996     29.54       18.78      0.3216      0.2000E+26   41.18      0.4567      0.2000E+26   12.51     -0.9693E-03
   359.8      0.2783E-01  0.2055       365.6       552.0       101.8       2709.       6.046      0.2567      0.1082      0.3748E-01  0.6457E-01   0.000       0.000       0.000        94.998     29.78       18.78      0.3294      0.2000E+26   40.84      0.4509      0.2000E+26   12.48     -0.9302E-03
   360.0      0.2761E-01  0.2110       366.8       555.6       108.0       2711.       5.982      0.2636      0.1085      0.3181E-01  0.7141E-01   0.000       0.000       0.000        95.000     30.01       18.78      0.3373      0.2000E+26   40.51      0.4456      0.2000E+26   12.46     -0.9019E-03
   360.2      0.2740E-01  0.2165       367.8       557.4       115.1       2712.       5.925      0.2712      0.1091      0.2602E-01  0.7739E-01   0.000       0.000       0.000        94.998     30.24       18.78      0.3452      0.2000E+26   40.20      0.4408      0.2000E+26   12.44     -0.8770E-03
   360.4      0.2721E-01  0.2220       368.0       559.2       122.2       2713.       5.867      0.2790      0.1098      0.2020E-01  0.8319E-01   0.000       0.000       0.000        94.996     30.47       18.78      0.3533      0.2000E+26   39.92      0.4366      0.2000E+26   12.44     -0.8704E-03
   360.6      0.2702E-01  0.2274       368.3       561.0       129.3       2714.       5.810      0.2874      0.1098      0.1463E-01  0.8882E-01   0.000       0.000       0.000        94.995     30.69       18.78      0.3614      0.2000E+26   39.65      0.4328      0.2000E+26   12.43     -0.8638E-03
   360.8      0.2685E-01  0.2327       368.6       562.8       136.5       2715.       5.753      0.2958      0.1097      0.9181E-02  0.9445E-01   0.000       0.000       0.000        94.993     30.92       18.78      0.3696      0.2000E+26   39.39      0.4296      0.2000E+26   12.43     -0.8572E-03
   361.0      0.2669E-01  0.2381       369.1       564.6       143.6       2716.       5.695      0.3038      0.1090      0.4623E-02  0.1002       0.000       0.000       0.000        94.991     31.14       18.78      0.3779      0.2000E+26   39.15      0.4268      0.2000E+26   12.42     -0.8451E-03
   361.2      0.2655E-01  0.2434       370.0       572.6       151.3       2717.       5.653      0.3113      0.1083      0.1049E-02  0.1056       0.000       0.000       0.000        94.985     31.36       18.78      0.3862      0.2000E+26   38.95      0.4246      0.2000E+26   12.40     -0.8208E-03
   361.4      0.2643E-01  0.2487       371.7       580.6       159.1       2717.       5.611      0.3168      0.1076      0.3975E-03  0.1099       0.000       0.000       0.000        94.980     31.58       18.78      0.3946      0.2000E+26   38.77      0.4229      0.2000E+26   12.37     -0.7794E-03
   361.6      0.2633E-01  0.2539       374.6       588.6       166.9       2718.       5.569      0.3221      0.1070       0.000      0.1143       0.000       0.000       0.000        94.974     31.80       18.78      0.4031      0.2000E+26   38.63      0.4216      0.2000E+26   12.34     -0.7068E-03
   361.8      0.2625E-01  0.2592       377.6       596.6       174.6       2719.       5.528      0.3270      0.1064       0.000      0.1186       0.000       0.000       0.000        94.969     32.02       18.78      0.4116      0.2000E+26   38.51      0.4208      0.2000E+26   12.29     -0.6342E-03
   362.0      0.2618E-01  0.2644       380.5       604.6       182.4       2719.       5.486      0.3320      0.1060       0.000      0.1229       0.000       0.000       0.000        94.963     32.23       18.78      0.4202      0.2000E+26   38.41      0.4205      0.2000E+26   12.24     -0.5616E-03
   362.2      0.2614E-01  0.2696       383.5       615.8       190.6       2719.       5.464      0.3369      0.1055       0.000      0.1272       0.000       0.000       0.000        94.954     32.45       18.78      0.4289      0.2000E+26   38.35      0.4206      0.2000E+26   12.18     -0.4875E-03
   362.4      0.2611E-01  0.2749       386.6       627.0       198.8       2719.       5.441      0.3418      0.1052       0.000      0.1315       0.000       0.000       0.000        94.945     32.66       18.78      0.4376      0.2000E+26   38.31      0.4212      0.2000E+26   12.13     -0.4107E-03
   362.6      0.2611E-01  0.2801       389.8       638.1       207.0       2719.       5.419      0.3468      0.1050       0.000      0.1358       0.000       0.000       0.000        94.936     32.87       18.78      0.4464      0.2000E+26   38.31      0.4222      0.2000E+26   12.11     -0.3311E-03
   362.8      0.2612E-01  0.2853       393.2       649.3       215.2       2720.       5.397      0.3513      0.1051       0.000      0.1403       0.000       0.000       0.000        94.927     33.08       18.78      0.4553      0.2000E+26   38.33      0.4237      0.2000E+26   12.05     -0.2453E-03
   363.0      0.2616E-01  0.2905       396.7       660.5       223.4       2720.       5.375      0.3557      0.1052       0.000      0.1449       0.000       0.000       0.000        94.918     33.29       18.78      0.4642      0.2000E+26   38.38      0.4256      0.2000E+26   11.99     -0.1595E-03
   363.2      0.2621E-01  0.2958       400.2       654.1       231.8       2719.       5.372      0.3597      0.1054       0.000      0.1499       0.000       0.000       0.000        94.905     33.50       18.78      0.4732      0.2000E+26   38.45      0.4279      0.2000E+26   11.94     -0.7363E-04
   363.4      0.2628E-01  0.3010       403.1       647.8       240.2       2719.       5.370      0.3637      0.1056       0.000      0.1548       0.000       0.000       0.000        94.892     33.70       18.78      0.4823      0.2000E+26   38.56      0.4305      0.2000E+26   11.89       0.000    
   363.6      0.2637E-01  0.3063       402.7       641.5       248.6       2718.       5.367      0.3675      0.1059       0.000      0.1601       0.000       0.000       0.000        94.879     33.91       18.78      0.4914      0.2000E+26   38.69      0.4336      0.2000E+26   11.93     -0.9451E-05
   363.8      0.2647E-01  0.3116       402.4       635.1       257.0       2718.       5.364      0.3712      0.1059       0.000      0.1655       0.000       0.000       0.000        94.867     34.11       18.78      0.5007      0.2000E+26   38.84      0.4370      0.2000E+26   11.94     -0.1906E-04
   364.0      0.2659E-01  0.3169       397.8       628.8       265.4       2718.       5.362      0.3748      0.1053       0.000      0.1715       0.000       0.000       0.000        94.854     34.32       18.78      0.5100      0.2000E+26   39.01      0.4409      0.2000E+26   12.01     -0.1313E-03
   364.2      0.2672E-01  0.3223       393.3       623.2       273.9       2717.       5.376      0.3783      0.1046       0.000      0.1777       0.000       0.000       0.000        94.837     34.52       18.78      0.5193      0.2000E+26   39.20      0.4450      0.2000E+26   12.09     -0.2435E-03
   364.4      0.2687E-01  0.3276       388.8       617.5       282.3       2716.       5.390      0.3818      0.1037       0.000      0.1840       0.000       0.000       0.000        94.821     34.72       18.78      0.5288      0.2000E+26   39.42      0.4495      0.2000E+26   12.16     -0.3558E-03
   364.6      0.2703E-01  0.3330       384.3       611.9       290.8       2715.       5.405      0.3852      0.1027       0.000      0.1904       0.000       0.000       0.000        94.804     34.92       18.78      0.5383      0.2000E+26   39.65      0.4543      0.2000E+26   12.29     -0.4680E-03
   364.8      0.2720E-01  0.3385       382.5       606.3       299.3       2715.       5.419      0.3886      0.1015       0.000      0.1969       0.000       0.000       0.000        94.788     35.11       18.78      0.5479      0.2000E+26   39.91      0.4594      0.2000E+26   12.32     -0.5120E-03
   365.0      0.2740E-01  0.3440       382.1       600.6       307.7       2714.       5.433      0.3933      0.1002       0.000      0.2024       0.000       0.000       0.000        94.772     35.31       18.78      0.5575      0.2000E+26   40.19      0.4648      0.2000E+26   12.32     -0.5219E-03
   365.2      0.2761E-01  0.3495       382.3       597.2       316.1       2713.       5.464      0.3986      0.9885E-01   0.000      0.2072       0.000       0.000       0.000        94.752     35.51       18.78      0.5672      0.2000E+26   40.51      0.4705      0.2000E+26   12.32     -0.5156E-03
   365.4      0.2784E-01  0.3551       383.4       593.8       324.5       2712.       5.494      0.4046      0.9736E-01   0.000      0.2115       0.000       0.000       0.000        94.731     35.70       18.78      0.5770      0.2000E+26   40.84      0.4764      0.2000E+26   12.30     -0.4899E-03
   365.6      0.2808E-01  0.3607       384.3       590.4       332.9       2710.       5.524      0.4108      0.9584E-01   0.000      0.2156       0.000       0.000       0.000        94.711     35.89       18.78      0.5868      0.2000E+26   41.19      0.4827      0.2000E+26   12.35     -0.4669E-03
   365.8      0.2833E-01  0.3663       384.9       587.0       341.3       2709.       5.555      0.4172      0.9509E-01   0.000      0.2188       0.000       0.000       0.000        94.691     36.09       18.78      0.5966      0.2000E+26   41.56      0.4891      0.2000E+26   12.34     -0.4526E-03
   366.0      0.2859E-01  0.3721       385.5       583.5       349.7       2708.       5.585      0.4237      0.9444E-01   0.000      0.2219       0.000       0.000       0.000        94.671     36.28       18.78      0.6065      0.2000E+26   41.95      0.4958      0.2000E+26   12.33     -0.4383E-03
   366.2      0.2886E-01  0.3778       381.8       576.5       358.0       2707.       5.626      0.4301      0.9454E-01   0.000      0.2240       0.000       0.000       0.000        94.648     36.47       18.78      0.6164      0.2000E+26   42.35      0.5026      0.2000E+26   12.39     -0.5301E-03
   366.4      0.2914E-01  0.3837       377.9       569.5       366.3       2706.       5.668      0.4366      0.9469E-01   0.000      0.2260       0.000       0.000       0.000        94.624     36.66       18.78      0.6263      0.2000E+26   42.75      0.5097      0.2000E+26   12.46     -0.6263E-03
   366.6      0.2942E-01  0.3895       374.0       562.5       374.5       2704.       5.709      0.4430      0.9505E-01   0.000      0.2277       0.000       0.000       0.000        94.600     36.85       18.78      0.6362      0.2000E+26   43.17      0.5170      0.2000E+26   12.60     -0.7225E-03
   366.8      0.2971E-01  0.3955       370.1       555.5       382.8       2703.       5.750      0.4495      0.9536E-01   0.000      0.2294       0.000       0.000       0.000        94.577     37.03       18.78      0.6462      0.2000E+26   43.58      0.5244      0.2000E+26   12.67     -0.8187E-03
   367.0      0.2999E-01  0.4015       367.1       548.5       391.0       2701.       5.792      0.4560      0.9558E-01   0.000      0.2311       0.000       0.000       0.000        94.553     37.22       18.78      0.6561      0.2000E+26   44.01      0.5320      0.2000E+26   12.72     -0.8935E-03
   367.2      0.3028E-01  0.4075       365.7       550.3       399.1       2700.       5.838      0.4623      0.9550E-01   0.000      0.2332       0.000       0.000       0.000        94.526     37.41       18.78      0.6661      0.2000E+26   44.43      0.5397      0.2000E+26   12.75     -0.9288E-03
   367.4      0.3057E-01  0.4137       364.3       552.1       407.2       2698.       5.885      0.4685      0.9508E-01   0.000      0.2358       0.000       0.000       0.000        94.498     37.59       18.78      0.6760      0.2000E+26   44.85      0.5476      0.2000E+26   12.78     -0.9637E-03
   367.6      0.3085E-01  0.4198       365.1       553.9       415.2       2697.       5.932      0.4744      0.9448E-01   0.000      0.2389       0.000       0.000       0.000        94.471     37.78       18.78      0.6860      0.2000E+26   45.27      0.5556      0.2000E+26   12.85     -0.9445E-03
   367.8      0.3114E-01  0.4260       365.8       555.7       423.3       2695.       5.978      0.4802      0.9376E-01   0.000      0.2423       0.000       0.000       0.000        94.444     37.96       18.78      0.6960      0.2000E+26   45.68      0.5636      0.2000E+26   12.83     -0.9253E-03
   368.0      0.3142E-01  0.4323       366.6       557.5       431.3       2693.       6.025      0.4858      0.9317E-01   0.000      0.2456       0.000       0.000       0.000        94.416     38.14       18.78      0.7060      0.2000E+26   46.10      0.5718      0.2000E+26   12.82     -0.9069E-03
   368.2      0.3171E-01  0.4387       367.3       555.3       439.1       2692.       6.073      0.4915      0.9262E-01   0.000      0.2489       0.000       0.000       0.000        94.385     38.32       18.78      0.7161      0.2000E+26   46.52      0.5800      0.2000E+26   12.81     -0.8890E-03
   368.4      0.3199E-01  0.4451       367.7       553.1       446.9       2690.       6.122      0.4973      0.9249E-01   0.000      0.2517       0.000       0.000       0.000        94.354     38.50       18.78      0.7261      0.2000E+26   46.93      0.5884      0.2000E+26   12.80     -0.8798E-03
   368.6      0.3227E-01  0.4515       366.9       550.9       454.7       2688.       6.170      0.5032      0.9242E-01   0.000      0.2543       0.000       0.000       0.000        94.324     38.68       18.78      0.7362      0.2000E+26   47.34      0.5967      0.2000E+26   12.91     -0.8991E-03
   368.8      0.3255E-01  0.4580       366.1       548.7       462.5       2686.       6.219      0.5098      0.9293E-01   0.000      0.2555       0.000       0.000       0.000        94.293     38.86       18.78      0.7462      0.2000E+26   47.75      0.6051      0.2000E+26   12.92     -0.9183E-03
   369.0      0.3282E-01  0.4646       365.3       546.5       470.3       2684.       6.267      0.5167      0.9344E-01   0.000      0.2565       0.000       0.000       0.000        94.262     39.04       18.78      0.7563      0.2000E+26   48.16      0.6136      0.2000E+26   12.94     -0.9375E-03
   369.2      0.3310E-01  0.4712       364.6       533.2       477.8       2682.       6.314      0.5249      0.9395E-01   0.000      0.2561       0.000       0.000       0.000        94.227     39.22       18.78      0.7663      0.2000E+26   48.56      0.6220      0.2000E+26   12.95     -0.9567E-03
   369.4      0.3336E-01  0.4779       362.6       519.9       485.3       2681.       6.361      0.5331      0.9432E-01   0.000      0.2558       0.000       0.000       0.000        94.193     39.39       18.78      0.7763      0.2000E+26   48.94      0.6305      0.2000E+26   12.99     -0.1005E-02
   369.6      0.3361E-01  0.4846       358.5       506.6       492.9       2679.       6.408      0.5414      0.9436E-01   0.000      0.2556       0.000       0.000       0.000        94.158     39.57       18.78      0.7862      0.2000E+26   49.32      0.6390      0.2000E+26   13.17     -0.1107E-02
   369.8      0.3386E-01  0.4914       354.4       493.4       500.4       2677.       6.454      0.5498      0.9415E-01   0.000      0.2554       0.000       0.000       0.000        94.124     39.74       18.78      0.7961      0.2000E+26   49.67      0.6475      0.2000E+26   13.25     -0.1208E-02
   370.0      0.3409E-01  0.4982       348.5       480.1       507.9       2675.       6.501      0.5585      0.9361E-01   0.000      0.2552       0.000       0.000       0.000        94.089     39.92       18.78      0.8059      0.2000E+26   50.01      0.6559      0.2000E+26   13.37     -0.1356E-02
   370.2      0.3431E-01  0.5051       342.3       458.1       515.1       2673.       6.542      0.5673      0.9275E-01   0.000      0.2549       0.000       0.000       0.000        94.051     40.09       18.78      0.8158      0.2000E+26   50.33      0.6643      0.2000E+26   13.50     -0.1510E-02
   370.4      0.3451E-01  0.5120       335.5       436.1       522.3       2671.       6.582      0.5763      0.9165E-01   0.000      0.2546       0.000       0.000       0.000        94.013     40.26       18.78      0.8255      0.2000E+26   50.64      0.6727      0.2000E+26   13.64     -0.1677E-02
   370.6      0.3471E-01  0.5189       327.9       414.1       529.5       2668.       6.622      0.5839      0.9037E-01   0.000      0.2555       0.000       0.000       0.000        93.975     40.43       18.78      0.8352      0.2000E+26   50.92      0.6810      0.2000E+26   13.93     -0.1867E-02
   370.8      0.3488E-01  0.5259       320.2       392.1       536.6       2666.       6.663      0.5910      0.8902E-01   0.000      0.2569       0.000       0.000       0.000        93.937     40.60       18.78      0.8449      0.2000E+26   51.17      0.6893      0.2000E+26   14.10     -0.2057E-02
   371.0      0.3504E-01  0.5329       308.9       370.1       543.8       2664.       6.703      0.5967      0.8753E-01   0.000      0.2595       0.000       0.000       0.000        93.899     40.77       18.78      0.8545      0.2000E+26   51.41      0.6975      0.2000E+26   14.38     -0.2337E-02
   371.2      0.3518E-01  0.5399       296.9       345.5       550.7       2662.       6.733      0.6022      0.8601E-01   0.000      0.2623       0.000       0.000       0.000        93.857     40.94       18.78      0.8641      0.2000E+26   51.62      0.7057      0.2000E+26   14.68     -0.2635E-02
   371.4      0.3530E-01  0.5470       284.9       320.9       557.5       2660.       6.763      0.6063      0.8414E-01   0.000      0.2661       0.000       0.000       0.000        93.816     41.11       18.78      0.8737      0.2000E+26   51.79      0.7138      0.2000E+26   15.01     -0.2934E-02
   371.6      0.3541E-01  0.5541       272.8       296.3       564.3       2658.       6.794      0.6105      0.8226E-01   0.000      0.2700       0.000       0.000       0.000        93.774     41.28       18.78      0.8832      0.2000E+26   51.95      0.7218      0.2000E+26   15.50     -0.3232E-02
   371.8      0.3551E-01  0.5612       260.8       271.8       571.1       2655.       6.824      0.6145      0.8024E-01   0.000      0.2735       0.000       0.000       0.000        93.733     41.45       18.78      0.8927      0.2000E+26   52.10      0.7297      0.2000E+26   15.87     -0.3530E-02
   372.0      0.3558E-01  0.5683       243.6       247.2       578.0       2653.       6.854      0.6185      0.7814E-01   0.000      0.2769       0.000       0.000       0.000        93.691     41.61       18.78      0.9022      0.2000E+26   52.20      0.7375      0.2000E+26   16.46     -0.3958E-02
   372.2      0.3563E-01  0.5754       223.8       227.9       584.4       2651.       6.872      0.6224      0.7579E-01   0.000      0.2798       0.000       0.000       0.000        93.646     41.78       18.78      0.9116      0.2000E+26   52.28      0.7452      0.2000E+26   17.22     -0.4448E-02
   372.4      0.3567E-01  0.5826       204.1       208.5       590.8       2648.       6.891      0.6265      0.7336E-01   0.000      0.2824       0.000       0.000       0.000        93.601     41.95       18.78      0.9210      0.2000E+26   52.34      0.7528      0.2000E+26   18.09     -0.4938E-02
   372.6      0.3570E-01  0.5897       183.9       189.2       597.2       2646.       6.909      0.6309      0.7082E-01   0.000      0.2846       0.000       0.000       0.000        93.556     42.11       18.78      0.9304      0.2000E+26   52.38      0.7603      0.2000E+26   19.30     -0.5439E-02
   372.8      0.3570E-01  0.5968       163.7       169.9       603.6       2644.       6.927      0.6358      0.6805E-01   0.000      0.2859       0.000       0.000       0.000        93.510     42.27       18.78      0.9396      0.2000E+26   52.38      0.7677      0.2000E+26   20.53     -0.5939E-02
   373.0      0.3569E-01  0.6040       142.7       150.5       610.0       2641.       6.946      0.6413      0.6506E-01   0.000      0.2864       0.000       0.000       0.000        93.465     42.44       18.78      0.9488      0.2000E+26   52.36      0.7749      0.2000E+26   22.08     -0.6459E-02
   373.2      0.3566E-01  0.6111       120.7       145.6       616.0       2639.       6.952      0.6473      0.6172E-01   0.000      0.2859       0.000       0.000       0.000        93.417     42.60       18.78      0.9580      0.2000E+26   52.32      0.7821      0.2000E+26   24.14     -0.7007E-02
   373.4      0.3561E-01  0.6182       98.61       140.6       621.9       2636.       6.957      0.6536      0.5821E-01   0.000      0.2851       0.000       0.000       0.000        93.368     42.76       18.78      0.9670      0.2000E+26   52.24      0.7891      0.2000E+26   26.88     -0.7554E-02
   373.6      0.3555E-01  0.6253       75.92       135.6       627.9       2634.       6.963      0.6598      0.5463E-01   0.000      0.2836       0.000       0.000       0.000        93.319     42.93       18.78      0.9760      0.2000E+26   52.15      0.7960      0.2000E+26   31.20     -0.8117E-02
   373.8      0.3546E-01  0.6324       53.03       130.7       633.8       2631.       6.969      0.6661      0.5103E-01   0.000      0.2820       0.000       0.000       0.000        93.271     43.09       18.78      0.9849      0.2000E+26   52.02      0.8028      0.2000E+26   37.76     -0.8684E-02
   374.0      0.3535E-01  0.6395       31.20       125.7       639.8       2629.       6.975      0.6718      0.4788E-01   0.000      0.2799       0.000       0.000       0.000        93.222     43.25       18.78      0.9936      0.2000E+26   51.87      0.8094      0.2000E+26   50.07     -0.9226E-02
   374.2      0.3524E-01  0.6465       0.000       124.6       645.2       2626.       6.969      0.6773      0.4490E-01   0.000      0.2778       0.000       0.000       0.000        93.170     43.41       18.78      0.2000E+26  0.2000E+26   51.69      0.8159      0.2000E+26  0.2000E+26 -0.1000E-01
   374.4      0.3510E-01  0.6536       0.000       123.4       650.7       2624.       6.963      0.6814      0.4344E-01   0.000      0.2752       0.000       0.000       0.000        93.118     43.57       18.78      0.2000E+26  0.2000E+26   51.50      0.8222      0.2000E+26  0.2000E+26 -0.1000E-01
   374.6      0.3496E-01  0.6606       0.000       122.3       656.1       2621.       6.957      0.6854      0.4202E-01   0.000      0.2726       0.000       0.000       0.000        93.066     43.72       18.78      0.2000E+26  0.2000E+26   51.29      0.8285      0.2000E+26  0.2000E+26 -0.1000E-01
   374.8      0.3480E-01  0.6675       0.000       121.2       661.6       2618.       6.951      0.6894      0.4071E-01   0.000      0.2699       0.000       0.000       0.000        93.014     43.88       18.78      0.2000E+26  0.2000E+26   51.05      0.8345      0.2000E+26  0.2000E+26 -0.1000E-01
   375.0      0.3463E-01  0.6744       0.000       120.0       667.1       2616.       6.945      0.6934      0.3968E-01   0.000      0.2669       0.000       0.000       0.000        92.961     44.04       18.78      0.2000E+26  0.2000E+26   50.81      0.8405      0.2000E+26  0.2000E+26 -0.1000E-01
   375.2      0.3445E-01  0.6813       0.000       119.3       672.0       2613.       6.929      0.6973      0.3912E-01   0.000      0.2636       0.000       0.000       0.000        92.906     44.20       18.78      0.2000E+26  0.2000E+26   50.54      0.8463      0.2000E+26  0.2000E+26 -0.1000E-01
   375.4      0.3426E-01  0.6882       0.000       118.6       676.9       2610.       6.913      0.7012      0.3857E-01   0.000      0.2602       0.000       0.000       0.000        92.850     44.35       18.78      0.2000E+26  0.2000E+26   50.26      0.8519      0.2000E+26  0.2000E+26 -0.1000E-01
   375.6      0.3408E-01  0.6950       0.000       118.0       681.8       2607.       6.897      0.7052      0.3801E-01   0.000      0.2568       0.000       0.000       0.000        92.795     44.51       18.78      0.2000E+26  0.2000E+26   50.00      0.8575      0.2000E+26  0.2000E+26 -0.1000E-01
   375.8      0.3387E-01  0.7018       0.000       117.3       686.8       2604.       6.881      0.7097      0.3746E-01   0.000      0.2529       0.000       0.000       0.000        92.739     44.67       18.78      0.2000E+26  0.2000E+26   49.69      0.8628      0.2000E+26  0.2000E+26 -0.1000E-01
   376.0      0.3365E-01  0.7085       0.000       116.6       691.7       2601.       6.866      0.7145      0.3690E-01   0.000      0.2486       0.000       0.000       0.000        92.684     44.82       18.78      0.2000E+26  0.2000E+26   49.36      0.8681      0.2000E+26  0.2000E+26 -0.1000E-01
   376.2      0.3341E-01  0.7152       0.000       115.9       696.1       2598.       6.841      0.7196      0.3635E-01   0.000      0.2440       0.000       0.000       0.000        92.625     44.97       18.78      0.2000E+26  0.2000E+26   49.02      0.8732      0.2000E+26  0.2000E+26 -0.1000E-01
   376.4      0.3317E-01  0.7218       0.000       115.2       700.5       2596.       6.817      0.7249      0.3579E-01   0.000      0.2394       0.000       0.000       0.000        92.566     45.13       18.78      0.2000E+26  0.2000E+26   48.67      0.8781      0.2000E+26  0.2000E+26 -0.1000E-01
   376.6      0.3295E-01  0.7284       0.000       114.5       704.9       2593.       6.793      0.7310      0.3523E-01   0.000      0.2337       0.000       0.000       0.000        92.507     45.28       18.78      0.2000E+26  0.2000E+26   48.34      0.8829      0.2000E+26  0.2000E+26 -0.1000E-01
   376.8      0.3269E-01  0.7349       0.000       113.7       709.3       2590.       6.769      0.7373      0.3468E-01   0.000      0.2280       0.000       0.000       0.000        92.448     45.43       18.78      0.2000E+26  0.2000E+26   47.96      0.8876      0.2000E+26  0.2000E+26 -0.1000E-01
   377.0      0.3242E-01  0.7414       0.000       113.0       713.7       2587.       6.745      0.7436      0.3412E-01   0.000      0.2223       0.000       0.000       0.000        92.389     45.59       18.78      0.2000E+26  0.2000E+26   47.56      0.8921      0.2000E+26  0.2000E+26 -0.1000E-01
   377.2      0.3214E-01  0.7479       0.000       112.3       717.6       2583.       6.713      0.7497      0.3356E-01   0.000      0.2167       0.000       0.000       0.000        92.326     45.74       18.78      0.2000E+26  0.2000E+26   47.15      0.8965      0.2000E+26  0.2000E+26 -0.1000E-01
   377.4      0.3185E-01  0.7542       0.000       111.6       721.4       2580.       6.680      0.7554      0.3300E-01   0.000      0.2116       0.000       0.000       0.000        92.264     45.89       18.78      0.2000E+26  0.2000E+26   46.73      0.9008      0.2000E+26  0.2000E+26 -0.1000E-01
   377.6      0.3158E-01  0.7605       0.000       110.8       725.3       2577.       6.648      0.7609      0.3245E-01   0.000      0.2067       0.000       0.000       0.000        92.201     46.04       18.78      0.2000E+26  0.2000E+26   46.33      0.9049      0.2000E+26  0.2000E+26 -0.1000E-01
   377.8      0.3127E-01  0.7668       0.000       110.1       729.1       2574.       6.616      0.7660      0.3189E-01   0.000      0.2021       0.000       0.000       0.000        92.139     46.19       18.78      0.2000E+26  0.2000E+26   45.88      0.9090      0.2000E+26  0.2000E+26 -0.1000E-01
   378.0      0.3096E-01  0.7730       0.000       109.4       733.0       2571.       6.584      0.7712      0.3133E-01   0.000      0.1975       0.000       0.000       0.000        92.076     46.34       18.78      0.2000E+26  0.2000E+26   45.42      0.9128      0.2000E+26  0.2000E+26 -0.1000E-01
   378.2      0.3064E-01  0.7791       0.000       108.6       736.4       2568.       6.545      0.7764      0.3077E-01   0.000      0.1929       0.000       0.000       0.000        92.011     46.49       18.78      0.2000E+26  0.2000E+26   44.95      0.9166      0.2000E+26  0.2000E+26 -0.1000E-01
   378.4      0.3031E-01  0.7852       0.000       107.9       739.7       2564.       6.506      0.7813      0.3021E-01   0.000      0.1884       0.000       0.000       0.000        91.945     46.64       18.78      0.2000E+26  0.2000E+26   44.46      0.9202      0.2000E+26  0.2000E+26 -0.1000E-01
   378.6      0.2999E-01  0.7912       0.000       107.1       743.1       2561.       6.466      0.7862      0.2964E-01   0.000      0.1842       0.000       0.000       0.000        91.879     46.79       18.78      0.2000E+26  0.2000E+26   44.00      0.9237      0.2000E+26  0.2000E+26 -0.1000E-01
   378.8      0.2964E-01  0.7971       0.000       106.4       746.4       2558.       6.427      0.7901      0.2907E-01   0.000      0.1809       0.000       0.000       0.000        91.813     46.93       18.78      0.2000E+26  0.2000E+26   43.49      0.9271      0.2000E+26  0.2000E+26 -0.1000E-01
   379.0      0.2929E-01  0.8030       0.000       105.6       749.8       2555.       6.388      0.7936      0.2849E-01   0.000      0.1779       0.000       0.000       0.000        91.748     47.08       18.78      0.2000E+26  0.2000E+26   42.97      0.9303      0.2000E+26  0.2000E+26 -0.1000E-01
   379.2      0.2893E-01  0.8088       0.000       104.8       752.6       2551.       6.342      0.7972      0.2790E-01   0.000      0.1749       0.000       0.000       0.000        91.678     47.23       18.78      0.2000E+26  0.2000E+26   42.45      0.9335      0.2000E+26  0.2000E+26 -0.1000E-01
   379.4      0.2857E-01  0.8145       0.000       104.1       755.5       2548.       6.296      0.8007      0.2732E-01   0.000      0.1720       0.000       0.000       0.000        91.609     47.37       18.78      0.2000E+26  0.2000E+26   41.92      0.9365      0.2000E+26  0.2000E+26 -0.1000E-01
   379.6      0.2821E-01  0.8201       0.000       103.3       758.3       2544.       6.251      0.8036      0.2660E-01   0.000      0.1698       0.000       0.000       0.000        91.540     47.52       18.78      0.2000E+26  0.2000E+26   41.39      0.9394      0.2000E+26  0.2000E+26 -0.1000E-01
   379.8      0.2784E-01  0.8257       0.000       102.6       761.2       2541.       6.205      0.8065      0.2587E-01   0.000      0.1676       0.000       0.000       0.000        91.471     47.67       18.78      0.2000E+26  0.2000E+26   40.84      0.9423      0.2000E+26  0.2000E+26 -0.1000E-01
   380.0      0.2746E-01  0.8312       0.000       101.8       764.1       2537.       6.159      0.8093      0.2511E-01   0.000      0.1656       0.000       0.000       0.000        91.402     47.81       18.78      0.2000E+26  0.2000E+26   40.29      0.9450      0.2000E+26  0.2000E+26 -0.1000E-01
   380.2      0.2708E-01  0.8366       0.000       101.0       766.5       2534.       6.108      0.8120      0.2435E-01   0.000      0.1637       0.000       0.000       0.000        91.330     47.95       18.78      0.2000E+26  0.2000E+26   39.72      0.9476      0.2000E+26  0.2000E+26 -0.1000E-01
   380.4      0.2669E-01  0.8419       0.000       100.3       768.9       2530.       6.057      0.8147      0.2359E-01   0.000      0.1617       0.000       0.000       0.000        91.257     48.10       18.78      0.2000E+26  0.2000E+26   39.16      0.9501      0.2000E+26  0.2000E+26 -0.1000E-01
   380.6      0.2631E-01  0.8472       0.000       99.52       771.3       2527.       6.005      0.8173      0.2283E-01   0.000      0.1599       0.000       0.000       0.000        91.185     48.24       18.78      0.2000E+26  0.2000E+26   38.59      0.9525      0.2000E+26  0.2000E+26 -0.1000E-01
   380.8      0.2591E-01  0.8524       0.000       98.75       773.7       2523.       5.954      0.8195      0.2207E-01   0.000      0.1584       0.000       0.000       0.000        91.112     48.39       18.78      0.2000E+26  0.2000E+26   38.01      0.9548      0.2000E+26  0.2000E+26 -0.1000E-01
   381.0      0.2551E-01  0.8575       0.000       97.99       776.2       2520.       5.903      0.8217      0.2130E-01   0.000      0.1570       0.000       0.000       0.000        91.040     48.53       18.78      0.2000E+26  0.2000E+26   37.43      0.9570      0.2000E+26  0.2000E+26 -0.1000E-01
   381.2      0.2511E-01  0.8625       0.000       97.22       778.2       2516.       5.847      0.8239      0.2054E-01   0.000      0.1556       0.000       0.000       0.000        90.964     48.67       18.78      0.2000E+26  0.2000E+26   36.84      0.9591      0.2000E+26  0.2000E+26 -0.1000E-01
   381.4      0.2471E-01  0.8674       0.000       96.46       780.2       2512.       5.791      0.8260      0.1978E-01   0.000      0.1542       0.000       0.000       0.000        90.888     48.81       18.78      0.2000E+26  0.2000E+26   36.25      0.9612      0.2000E+26  0.2000E+26 -0.1000E-01
   381.6      0.2431E-01  0.8723       0.000       95.70       782.2       2509.       5.736      0.8282      0.1902E-01   0.000      0.1528       0.000       0.000       0.000        90.813     48.96       18.78      0.2000E+26  0.2000E+26   35.66      0.9631      0.2000E+26  0.2000E+26 -0.1000E-01
   381.8      0.2390E-01  0.8771       0.000       94.93       784.2       2505.       5.680      0.8302      0.1830E-01   0.000      0.1515       0.000       0.000       0.000        90.737     49.10       18.78      0.2000E+26  0.2000E+26   35.07      0.9650      0.2000E+26  0.2000E+26 -0.1000E-01
   382.0      0.2350E-01  0.8818       0.000       94.17       786.2       2501.       5.624      0.8322      0.1760E-01   0.000      0.1502       0.000       0.000       0.000        90.661     49.24       18.78      0.2000E+26  0.2000E+26   34.47      0.9668      0.2000E+26  0.2000E+26 -0.1000E-01
   382.2      0.2309E-01  0.8864       0.000       93.41       787.8       2498.       5.565      0.8335      0.1718E-01   0.000      0.1493       0.000       0.000       0.000        90.582     49.38       18.78      0.2000E+26  0.2000E+26   33.87      0.9685      0.2000E+26  0.2000E+26 -0.1000E-01
   382.4      0.2268E-01  0.8909       0.000       92.65       789.5       2494.       5.506      0.8348      0.1676E-01   0.000      0.1484       0.000       0.000       0.000        90.504     49.52       18.78      0.2000E+26  0.2000E+26   33.27      0.9701      0.2000E+26  0.2000E+26 -0.1000E-01
   382.6      0.2226E-01  0.8954       0.000       91.89       791.1       2490.       5.447      0.8361      0.1635E-01   0.000      0.1475       0.000       0.000       0.000        90.425     49.66       18.78      0.2000E+26  0.2000E+26   32.66      0.9717      0.2000E+26  0.2000E+26 -0.1000E-01
   382.8      0.2185E-01  0.8997       0.000       91.13       792.8       2486.       5.388      0.8374      0.1593E-01   0.000      0.1467       0.000       0.000       0.000        90.346     49.79       18.78      0.2000E+26  0.2000E+26   32.06      0.9732      0.2000E+26  0.2000E+26 -0.1000E-01
   383.0      0.2144E-01  0.9040       0.000       90.38       794.4       2482.       5.328      0.8387      0.1551E-01   0.000      0.1458       0.000       0.000       0.000        90.267     49.93       18.78      0.2000E+26  0.2000E+26   31.45      0.9746      0.2000E+26  0.2000E+26 -0.1000E-01
   383.2      0.2103E-01  0.9082       0.000       89.63       795.8       2478.       5.260      0.8400      0.1510E-01   0.000      0.1449       0.000       0.000       0.000        90.185     50.07       18.78      0.2000E+26  0.2000E+26   30.85      0.9760      0.2000E+26  0.2000E+26 -0.1000E-01
   383.4      0.2062E-01  0.9124       0.000       88.87       797.1       2474.       5.193      0.8413      0.1468E-01   0.000      0.1440       0.000       0.000       0.000        90.103     50.21       18.78      0.2000E+26  0.2000E+26   30.25      0.9773      0.2000E+26  0.2000E+26 -0.1000E-01
   383.6      0.2020E-01  0.9164       0.000       88.12       798.4       2470.       5.125      0.8426      0.1426E-01   0.000      0.1432       0.000       0.000       0.000        90.020     50.35       18.78      0.2000E+26  0.2000E+26   29.63      0.2000E+26  0.2000E+26  0.2000E+26 -0.1000E-01
   383.8      0.1979E-01  0.9204       0.000       87.37       799.8       2467.       5.057      0.8439      0.1384E-01   0.000      0.1423       0.000       0.000       0.000        89.938     50.49       18.78      0.2000E+26  0.2000E+26   29.03      0.9797      0.2000E+26  0.2000E+26 -0.1000E-01
   384.0      0.1884E-01  0.9241       0.000       86.62       801.1       2463.       4.989      0.2000E+26  0.2000E+26  0.2000E+26  0.2000E+26  0.2000E+26  0.2000E+26  0.2000E+26    89.938    0.2000E+26  0.2000E+26  0.2000E+26  0.2000E+26   27.65      0.9808      0.2000E+26  0.2000E+26 -0.1000E-01
   384.2      0.1795E-01  0.9277       0.000       85.87       802.1       2458.       4.900      0.2000E+26  0.2000E+26  0.2000E+26  0.2000E+26  0.2000E+26  0.2000E+26  0.2000E+26    89.938    0.2000E+26  0.2000E+26  0.2000E+26  0.2000E+26   26.33      0.9819      0.2000E+26  0.2000E+26 -0.1000E-01
   384.4      0.1709E-01  0.9311       0.000       85.11       803.2       2454.       4.810      0.2000E+26  0.2000E+26  0.2000E+26  0.2000E+26  0.2000E+26  0.2000E+26  0.2000E+26    89.938    0.2000E+26  0.2000E+26  0.2000E+26  0.2000E+26   25.08      0.9829      0.2000E+26  0.2000E+26 -0.1000E-01
   384.6      0.1627E-01  0.9344       0.000       84.36       804.2       2450.       4.721      0.2000E+26  0.2000E+26  0.2000E+26  0.2000E+26  0.2000E+26  0.2000E+26  0.2000E+26    89.938    0.2000E+26  0.2000E+26  0.2000E+26  0.2000E+26   23.87      0.9838      0.2000E+26  0.2000E+26 -0.1000E-01
   384.8      0.1550E-01  0.9375       0.000       83.60       805.3       2446.       4.632      0.2000E+26  0.2000E+26  0.2000E+26  0.2000E+26  0.2000E+26  0.2000E+26  0.2000E+26    89.938    0.2000E+26  0.2000E+26  0.2000E+26  0.2000E+26   22.74      0.9848      0.2000E+26  0.2000E+26 -0.1000E-01
   385.0      0.1476E-01  0.9404       0.000       82.84       806.3       2441.       4.543      0.2000E+26  0.2000E+26  0.2000E+26  0.2000E+26  0.2000E+26  0.2000E+26  0.2000E+26    89.938    0.2000E+26  0.2000E+26  0.2000E+26  0.2000E+26   21.66      0.9856      0.2000E+26  0.2000E+26 -0.1000E-01
   385.2      0.1407E-01  0.9433       0.000       82.09       807.1       2437.       4.448      0.2000E+26  0.2000E+26  0.2000E+26  0.2000E+26  0.2000E+26  0.2000E+26  0.2000E+26    89.938    0.2000E+26  0.2000E+26  0.2000E+26  0.2000E+26   20.64      0.9865      0.2000E+26  0.2000E+26 -0.1000E-01
   385.4      0.1340E-01  0.9459       0.000       81.33       807.8       2432.       4.353      0.2000E+26  0.2000E+26  0.2000E+26  0.2000E+26  0.2000E+26  0.2000E+26  0.2000E+26    89.938    0.2000E+26  0.2000E+26  0.2000E+26  0.2000E+26   19.66      0.9873      0.2000E+26  0.2000E+26 -0.1000E-01
   385.6      0.1276E-01  0.9485       0.000       80.58       808.6       2428.       4.258      0.2000E+26  0.2000E+26  0.2000E+26  0.2000E+26  0.2000E+26  0.2000E+26  0.2000E+26    89.938    0.2000E+26  0.2000E+26  0.2000E+26  0.2000E+26   18.71      0.9880      0.2000E+26  0.2000E+26 -0.1000E-01
   385.8      0.1216E-01  0.9509       0.000       79.82       809.4       2424.       4.163      0.2000E+26  0.2000E+26  0.2000E+26  0.2000E+26  0.2000E+26  0.2000E+26  0.2000E+26    89.938    0.2000E+26  0.2000E+26  0.2000E+26  0.2000E+26   17.83      0.9887      0.2000E+26  0.2000E+26 -0.1000E-01
   386.0      0.1158E-01  0.9532       0.000       79.07       810.2       2419.       4.068      0.2000E+26  0.2000E+26  0.2000E+26  0.2000E+26  0.2000E+26  0.2000E+26  0.2000E+26    89.938    0.2000E+26  0.2000E+26  0.2000E+26  0.2000E+26   16.99      0.9894      0.2000E+26  0.2000E+26 -0.1000E-01
   386.2      0.1104E-01  0.9554       0.000       78.33       810.8       2414.       3.975      0.2000E+26  0.2000E+26  0.2000E+26  0.2000E+26  0.2000E+26  0.2000E+26  0.2000E+26    89.938    0.2000E+26  0.2000E+26  0.2000E+26  0.2000E+26   16.20      0.9900      0.2000E+26  0.2000E+26 -0.1000E-01
   386.4      0.1052E-01  0.9576       0.000       77.58       811.3       2410.       3.883      0.2000E+26  0.2000E+26  0.2000E+26  0.2000E+26  0.2000E+26  0.2000E+26  0.2000E+26    89.938    0.2000E+26  0.2000E+26  0.2000E+26  0.2000E+26   15.43      0.9906      0.2000E+26  0.2000E+26 -0.1000E-01
   386.6      0.1001E-01  0.9596       0.000       76.84       811.9       2405.       3.790      0.2000E+26  0.2000E+26  0.2000E+26  0.2000E+26  0.2000E+26  0.2000E+26  0.2000E+26    89.938    0.2000E+26  0.2000E+26  0.2000E+26  0.2000E+26   14.69      0.9912      0.2000E+26  0.2000E+26 -0.1000E-01
   386.8      0.9544E-02  0.9615       0.000       76.10       812.5       2400.       3.698      0.2000E+26  0.2000E+26  0.2000E+26  0.2000E+26  0.2000E+26  0.2000E+26  0.2000E+26    89.938    0.2000E+26  0.2000E+26  0.2000E+26  0.2000E+26   14.00      0.9917      0.2000E+26  0.2000E+26 -0.1000E-01
   387.0      0.9097E-02  0.9633       0.000       75.36       813.1       2396.       3.605      0.2000E+26  0.2000E+26  0.2000E+26  0.2000E+26  0.2000E+26  0.2000E+26  0.2000E+26    89.938    0.2000E+26  0.2000E+26  0.2000E+26  0.2000E+26   13.35      0.9922      0.2000E+26  0.2000E+26 -0.1000E-01
   387.2      0.8670E-02  0.9650       0.000       74.64       813.5       2391.       3.519      0.2000E+26  0.2000E+26  0.2000E+26  0.2000E+26  0.2000E+26  0.2000E+26  0.2000E+26    89.938    0.2000E+26  0.2000E+26  0.2000E+26  0.2000E+26   12.72      0.9927      0.2000E+26  0.2000E+26 -0.1000E-01
   387.4      0.8269E-02  0.9667       0.000       73.92       813.9       2386.       3.434      0.2000E+26  0.2000E+26  0.2000E+26  0.2000E+26  0.2000E+26  0.2000E+26  0.2000E+26    89.938    0.2000E+26  0.2000E+26  0.2000E+26  0.2000E+26   12.13      0.9932      0.2000E+26  0.2000E+26 -0.1000E-01
   387.6      0.7879E-02  0.9682       0.000       73.20       814.3       2381.       3.348      0.2000E+26  0.2000E+26  0.2000E+26  0.2000E+26  0.2000E+26  0.2000E+26  0.2000E+26    89.938    0.2000E+26  0.2000E+26  0.2000E+26  0.2000E+26   11.56      0.9936      0.2000E+26  0.2000E+26 -0.1000E-01
   387.8      0.7518E-02  0.9698       0.000       72.48       814.7       2376.       3.262      0.2000E+26  0.2000E+26  0.2000E+26  0.2000E+26  0.2000E+26  0.2000E+26  0.2000E+26    89.938    0.2000E+26  0.2000E+26  0.2000E+26  0.2000E+26   11.03      0.9940      0.2000E+26  0.2000E+26 -0.1000E-01
   388.0      0.7173E-02  0.9712       0.000       71.76       815.2       2372.       3.176      0.2000E+26  0.2000E+26  0.2000E+26  0.2000E+26  0.2000E+26  0.2000E+26  0.2000E+26    89.938    0.2000E+26  0.2000E+26  0.2000E+26  0.2000E+26   10.52      0.9944      0.2000E+26  0.2000E+26 -0.1000E-01
   388.2      0.6844E-02  0.9726       0.000       71.07       815.5       2367.       3.098      0.2000E+26  0.2000E+26  0.2000E+26  0.2000E+26  0.2000E+26  0.2000E+26  0.2000E+26    89.938    0.2000E+26  0.2000E+26  0.2000E+26  0.2000E+26   10.04      0.9947      0.2000E+26  0.2000E+26 -0.1000E-01
   388.4      0.6530E-02  0.9739       0.000       70.37       815.8       2362.       3.021      0.2000E+26  0.2000E+26  0.2000E+26  0.2000E+26  0.2000E+26  0.2000E+26  0.2000E+26    89.938    0.2000E+26  0.2000E+26  0.2000E+26  0.2000E+26   9.580      0.9951      0.2000E+26  0.2000E+26 -0.1000E-01
   388.6      0.6219E-02  0.9751       0.000       69.68       816.1       2357.       2.943      0.2000E+26  0.2000E+26  0.2000E+26  0.2000E+26  0.2000E+26  0.2000E+26  0.2000E+26    89.938    0.2000E+26  0.2000E+26  0.2000E+26  0.2000E+26   9.124      0.9954      0.2000E+26  0.2000E+26 -0.1000E-01
   388.8      0.5933E-02  0.9763       0.000       68.99       816.4       2352.       2.865      0.2000E+26  0.2000E+26  0.2000E+26  0.2000E+26  0.2000E+26  0.2000E+26  0.2000E+26    89.938    0.2000E+26  0.2000E+26  0.2000E+26  0.2000E+26   8.705      0.9957      0.2000E+26  0.2000E+26 -0.1000E-01
   389.0      0.5660E-02  0.9774       0.000       68.29       816.7       2347.       2.788      0.2000E+26  0.2000E+26  0.2000E+26  0.2000E+26  0.2000E+26  0.2000E+26  0.2000E+26    89.938    0.2000E+26  0.2000E+26  0.2000E+26  0.2000E+26   8.304      0.9960      0.2000E+26  0.2000E+26 -0.1000E-01
   389.2      0.5399E-02  0.9785       0.000       67.63       816.9       2342.       2.718      0.2000E+26  0.2000E+26  0.2000E+26  0.2000E+26  0.2000E+26  0.2000E+26  0.2000E+26    89.938    0.2000E+26  0.2000E+26  0.2000E+26  0.2000E+26   7.921      0.9962      0.2000E+26  0.2000E+26 -0.1000E-01
   389.4      0.5148E-02  0.9795       0.000       66.96       817.1       2337.       2.649      0.2000E+26  0.2000E+26  0.2000E+26  0.2000E+26  0.2000E+26  0.2000E+26  0.2000E+26    89.938    0.2000E+26  0.2000E+26  0.2000E+26  0.2000E+26   7.552      0.2000E+26  0.2000E+26  0.2000E+26 -0.1000E-01
   389.6      0.4899E-02  0.9805       0.000       66.30       817.3       2333.       2.580      0.2000E+26  0.2000E+26  0.2000E+26  0.2000E+26  0.2000E+26  0.2000E+26  0.2000E+26    89.938    0.2000E+26  0.2000E+26  0.2000E+26  0.2000E+26   7.187      0.2000E+26  0.2000E+26  0.2000E+26 -0.1000E-01
   389.8      0.4671E-02  0.9814       0.000       65.64       817.5       2328.       2.510      0.2000E+26  0.2000E+26  0.2000E+26  0.2000E+26  0.2000E+26  0.2000E+26  0.2000E+26    89.938    0.2000E+26  0.2000E+26  0.2000E+26  0.2000E+26   6.852      0.2000E+26  0.2000E+26  0.2000E+26 -0.1000E-01
   390.0      0.4453E-02  0.9823       0.000       64.97       817.8       2323.       2.441      0.2000E+26  0.2000E+26  0.2000E+26  0.2000E+26  0.2000E+26  0.2000E+26  0.2000E+26    89.938    0.2000E+26  0.2000E+26  0.2000E+26  0.2000E+26   6.533      0.2000E+26  0.2000E+26  0.2000E+26 -0.1000E-01
   390.2      0.4245E-02  0.9832       0.000       64.34       817.9       2318.       2.380      0.2000E+26  0.2000E+26  0.2000E+26  0.2000E+26  0.2000E+26  0.2000E+26  0.2000E+26    89.938    0.2000E+26  0.2000E+26  0.2000E+26  0.2000E+26   6.228      0.2000E+26  0.2000E+26  0.2000E+26 -0.1000E-01
   390.4      0.4047E-02  0.9840       0.000       63.71       818.1       2313.       2.319      0.2000E+26  0.2000E+26  0.2000E+26  0.2000E+26  0.2000E+26  0.2000E+26  0.2000E+26    89.938    0.2000E+26  0.2000E+26  0.2000E+26  0.2000E+26   5.937      0.2000E+26  0.2000E+26  0.2000E+26 -0.1000E-01
   390.6      0.3853E-02  0.9848       0.000       63.07       818.2       2308.       2.258      0.2000E+26  0.2000E+26  0.2000E+26  0.2000E+26  0.2000E+26  0.2000E+26  0.2000E+26    89.938    0.2000E+26  0.2000E+26  0.2000E+26  0.2000E+26   5.653      0.2000E+26  0.2000E+26  0.2000E+26 -0.1000E-01
   390.8      0.3673E-02  0.9855       0.000       62.44       818.4       2303.       2.197      0.2000E+26  0.2000E+26  0.2000E+26  0.2000E+26  0.2000E+26  0.2000E+26  0.2000E+26    89.938    0.2000E+26  0.2000E+26  0.2000E+26  0.2000E+26   5.389      0.2000E+26  0.2000E+26  0.2000E+26 -0.1000E-01
   391.0      0.3503E-02  0.9862       0.000       61.81       818.5       2298.       2.136      0.2000E+26  0.2000E+26  0.2000E+26  0.2000E+26  0.2000E+26  0.2000E+26  0.2000E+26    89.938    0.2000E+26  0.2000E+26  0.2000E+26  0.2000E+26   5.140      0.2000E+26  0.2000E+26  0.2000E+26 -0.1000E-01
   391.2      0.3341E-02  0.9869       0.000       61.21       818.7       2293.       2.082      0.2000E+26  0.2000E+26  0.2000E+26  0.2000E+26  0.2000E+26  0.2000E+26  0.2000E+26    89.938    0.2000E+26  0.2000E+26  0.2000E+26  0.2000E+26   4.902      0.2000E+26  0.2000E+26  0.2000E+26 -0.1000E-01
   391.4      0.3186E-02  0.9875       0.000       60.61       818.8       2288.       2.029      0.2000E+26  0.2000E+26  0.2000E+26  0.2000E+26  0.2000E+26  0.2000E+26  0.2000E+26    89.938    0.2000E+26  0.2000E+26  0.2000E+26  0.2000E+26   4.674      0.2000E+26  0.2000E+26  0.2000E+26 -0.1000E-01
   391.6      0.3038E-02  0.9881       0.000       60.01       818.9       2284.       1.975      0.2000E+26  0.2000E+26  0.2000E+26  0.2000E+26  0.2000E+26  0.2000E+26  0.2000E+26    89.938    0.2000E+26  0.2000E+26  0.2000E+26  0.2000E+26   4.457      0.2000E+26  0.2000E+26  0.2000E+26 -0.1000E-01
   391.8      0.2897E-02  0.9887       0.000       59.41       819.0       2279.       1.922      0.2000E+26  0.2000E+26  0.2000E+26  0.2000E+26  0.2000E+26  0.2000E+26  0.2000E+26    89.938    0.2000E+26  0.2000E+26  0.2000E+26  0.2000E+26   4.250      0.2000E+26  0.2000E+26  0.2000E+26 -0.1000E-01
   392.0      0.2762E-02  0.9892       0.000       58.81       819.1       2274.       1.868      0.2000E+26  0.2000E+26  0.2000E+26  0.2000E+26  0.2000E+26  0.2000E+26  0.2000E+26    89.938    0.2000E+26  0.2000E+26  0.2000E+26  0.2000E+26   4.052      0.2000E+26  0.2000E+26  0.2000E+26 -0.1000E-01
   392.2      0.2633E-02  0.9898       0.000       58.24       819.2       2269.       1.822      0.2000E+26  0.2000E+26  0.2000E+26  0.2000E+26  0.2000E+26  0.2000E+26  0.2000E+26    89.938    0.2000E+26  0.2000E+26  0.2000E+26  0.2000E+26   3.862      0.2000E+26  0.2000E+26  0.2000E+26 -0.1000E-01
   392.4      0.2509E-02  0.9903       0.000       57.67       819.3       2264.       1.775      0.2000E+26  0.2000E+26  0.2000E+26  0.2000E+26  0.2000E+26  0.2000E+26  0.2000E+26    89.938    0.2000E+26  0.2000E+26  0.2000E+26  0.2000E+26   3.682      0.2000E+26  0.2000E+26  0.2000E+26 -0.1000E-01
   392.6      0.2392E-02  0.9908       0.000       57.10       819.3       2259.       1.729      0.2000E+26  0.2000E+26  0.2000E+26  0.2000E+26  0.2000E+26  0.2000E+26  0.2000E+26    89.938    0.2000E+26  0.2000E+26  0.2000E+26  0.2000E+26   3.509      0.2000E+26  0.2000E+26  0.2000E+26 -0.1000E-01
   392.8      0.2279E-02  0.9912       0.000       56.53       819.4       2254.       1.682      0.2000E+26  0.2000E+26  0.2000E+26  0.2000E+26  0.2000E+26  0.2000E+26  0.2000E+26    89.938    0.2000E+26  0.2000E+26  0.2000E+26  0.2000E+26   3.344      0.2000E+26  0.2000E+26  0.2000E+26 -0.1000E-01
   393.0      0.2172E-02  0.9916       0.000       55.96       819.5       2250.       1.636      0.2000E+26  0.2000E+26  0.2000E+26  0.2000E+26  0.2000E+26  0.2000E+26  0.2000E+26    89.938    0.2000E+26  0.2000E+26  0.2000E+26  0.2000E+26   3.187      0.2000E+26  0.2000E+26  0.2000E+26 -0.1000E-01
   393.2      0.2070E-02  0.9921       0.000       55.43       819.6       2245.       1.595      0.2000E+26  0.2000E+26  0.2000E+26  0.2000E+26  0.2000E+26  0.2000E+26  0.2000E+26    89.938    0.2000E+26  0.2000E+26  0.2000E+26  0.2000E+26   3.037      0.2000E+26  0.2000E+26  0.2000E+26 -0.1000E-01
   393.4      0.1972E-02  0.9925       0.000       54.89       819.6       2240.       1.555      0.2000E+26  0.2000E+26  0.2000E+26  0.2000E+26  0.2000E+26  0.2000E+26  0.2000E+26    89.938    0.2000E+26  0.2000E+26  0.2000E+26  0.2000E+26   2.893      0.2000E+26  0.2000E+26  0.2000E+26 -0.1000E-01
   393.6      0.1879E-02  0.9928       0.000       54.35       819.7       2235.       1.514      0.2000E+26  0.2000E+26  0.2000E+26  0.2000E+26  0.2000E+26  0.2000E+26  0.2000E+26    89.938    0.2000E+26  0.2000E+26  0.2000E+26  0.2000E+26   2.756      0.2000E+26  0.2000E+26  0.2000E+26 -0.1000E-01
   393.8      0.1789E-02  0.9932       0.000       53.82       819.7       2231.       1.474      0.2000E+26  0.2000E+26  0.2000E+26  0.2000E+26  0.2000E+26  0.2000E+26  0.2000E+26    89.938    0.2000E+26  0.2000E+26  0.2000E+26  0.2000E+26   2.625      0.2000E+26  0.2000E+26  0.2000E+26 -0.1000E-01
   394.0      0.1704E-02  0.9935       0.000       53.28       819.8       2226.       1.433      0.2000E+26  0.2000E+26  0.2000E+26  0.2000E+26  0.2000E+26  0.2000E+26  0.2000E+26    89.938    0.2000E+26  0.2000E+26  0.2000E+26  0.2000E+26   2.500      0.2000E+26  0.2000E+26  0.2000E+26 -0.1000E-01
   394.2      0.1623E-02  0.9938       0.000       52.77       819.8       2221.       1.398      0.2000E+26  0.2000E+26  0.2000E+26  0.2000E+26  0.2000E+26  0.2000E+26  0.2000E+26    89.938    0.2000E+26  0.2000E+26  0.2000E+26  0.2000E+26   2.381      0.2000E+26  0.2000E+26  0.2000E+26 -0.1000E-01
   394.4      0.1546E-02  0.9942       0.000       52.27       819.9       2216.       1.363      0.2000E+26  0.2000E+26  0.2000E+26  0.2000E+26  0.2000E+26  0.2000E+26  0.2000E+26    89.938    0.2000E+26  0.2000E+26  0.2000E+26  0.2000E+26   2.267      0.2000E+26  0.2000E+26  0.2000E+26 -0.1000E-01
   394.6      0.1472E-02  0.9945       0.000       51.76       819.9       2211.       1.328      0.2000E+26  0.2000E+26  0.2000E+26  0.2000E+26  0.2000E+26  0.2000E+26  0.2000E+26    89.938    0.2000E+26  0.2000E+26  0.2000E+26  0.2000E+26   2.159      0.2000E+26  0.2000E+26  0.2000E+26 -0.1000E-01
   394.8      0.1401E-02  0.9947       0.000       51.25       820.0       2207.       1.293      0.2000E+26  0.2000E+26  0.2000E+26  0.2000E+26  0.2000E+26  0.2000E+26  0.2000E+26    89.938    0.2000E+26  0.2000E+26  0.2000E+26  0.2000E+26   2.055      0.2000E+26  0.2000E+26  0.2000E+26 -0.1000E-01
   395.0      0.1334E-02  0.9950       0.000       50.75       820.0       2202.       1.258      0.2000E+26  0.2000E+26  0.2000E+26  0.2000E+26  0.2000E+26  0.2000E+26  0.2000E+26    89.938    0.2000E+26  0.2000E+26  0.2000E+26  0.2000E+26   1.956      0.2000E+26  0.2000E+26  0.2000E+26 -0.1000E-01
   395.2       0.000      0.9950       0.000       50.26       820.0       2197.       1.220      0.2000E+26  0.2000E+26  0.2000E+26  0.2000E+26  0.2000E+26  0.2000E+26  0.2000E+26    89.938    0.2000E+26  0.2000E+26  0.2000E+26  0.2000E+26   0.000      0.2000E+26  0.2000E+26  0.2000E+26 -0.1000E-01
 
