 Legend
 2020-11-29 15-22-20 "4L9.1/9.5" ||| Режим: #1 : "RPM=4000, Пк=2.00   "; ^^^"Alpha определяет qc"^^^
 Файл : 4D56.tpl
 
.DSL4N1   Rus   PistMove   Step=0.20   Stroke=   95.00    
   ПАРАМЕТРЫ ВПРЫСКА, СМЕСЕОБРАЗОВАНИЯ, ТЕПЛОВЫДЕЛЕНИЯ И САЖЕОБРАЗОВАНИЯ 
 Comment
 Fi          Угол поворота коленчатого вала, [град.]                     
 dx/dFi      Скорость тепловыделения [1/град.]                           
 x           Доля выделившегося тепла                                    
 Uo          Скорость истечения топлива, [м/c]                           
 Pвпр        Давление перед соплами распылителя, [бар]                   
 NOx         Концентрация оксидов азота, [ppm]                           
 T_burn      Температура в зоне сгорания,[K]                             
 Soot        Концентрация сажевых частиц в цилиндре, [г/м3]              
 S_обол      Доля топлива в оболочке струи и пристеночного потока        
 S_ядр.C     Доля топлива в ядре свободной струи                         
 S_фронт     Доля топлива во фронте свободной струи                      
 S_ядр.W     Доля топлива в ядре пристеночного потока                    
 S_яд.Ws     Доля топлива в зонах пересечени пристеночных потоков        
 S_крыш      Доля топлива осевшего на поверхности крышки цилиндра        
 S_цил       Доля топлива осевшего на поверхности зеркала цилиндра       
 P_pist      Позиция поршня относительно НМТ, [мм]                       
 Spray_tip   Длина свободной струи без учета вихря, мм                   
 Spray_ang   Угол раскрытия внешнего контура струи, град.                
 Evap_zon    Доля испарившегося топлива в зонной модели                  
 Evap_1p     Доля испарившегося топлива (для порции #1)                  
 HRR         Скорость тепловыделения, [Дж/град.]                         
 Ksi_b       Степень эффективности использования воздушного заряда       
 I_LW_1p     Интеграл Livengood-Wu для порц. №1 (модиф. уравн. Толстова) 
 SMD         Средний диаметр капель по Заутеру, [мкм]                    
 Inj_pofile  Характеристика впрыска (безразмерная)                       
 Names
  Fi          dx/dFi      x           Uo          Pвпр        NOx         T_burn      Soot        S_обол      S_ядр.C     S_фронт     S_ядр.W     S_яд.Ws     S_крыш      S_цил       P_pist      Spray_tip   Spray_ang   Evap_zon    Evap_1p     HRR         Ksi_b       I_LW_1p     SMD         Inj_pofile
 Arrays
   350.0       0.000       0.000       0.000       96.67       0.000       1030.      0.9359E-01   0.000       0.000       0.000       0.000       0.000       0.000       0.000        94.089    0.2000E+26   69.30       0.000      0.2000E+26   0.000      0.2000E+26   0.000      0.2000E+26 -0.1000E-01
   350.2       0.000       0.000       23.47       107.6       0.000       1032.      0.9360E-01  0.5025E-03  0.7835E-04  0.6804E-06   0.000       0.000       0.000       0.000        94.124     1.773       51.22      0.8498E-04  0.2200E-06   0.000      0.2000E+26  0.4772E-01   54.59     -0.9432E-02
   350.4       0.000       0.000       46.93       118.6       0.000       1034.      0.9360E-01  0.1085E-02  0.1873E-03  0.2121E-05   0.000       0.000       0.000       0.000        94.158     3.286       38.63      0.2954E-03  0.1748E-05   0.000      0.2000E+26  0.9582E-01   37.75     -0.8864E-02
   350.6       0.000       0.000       70.40       129.6       0.000       1036.      0.9360E-01  0.2284E-02  0.5327E-03  0.9433E-05   0.000       0.000       0.000       0.000        94.193     4.369       35.10      0.7072E-03  0.6563E-05   0.000      0.2000E+26  0.1443       30.18     -0.8296E-02
   350.8       0.000       0.000       93.86       140.5       0.000       1038.      0.9360E-01  0.3615E-02  0.9787E-03  0.2341E-04   0.000       0.000       0.000       0.000        94.227     5.329       32.87      0.1367E-02  0.1753E-04   0.000      0.2000E+26  0.1932       25.90     -0.7728E-02
   351.0       0.000       0.000       117.3       151.5       0.000       1040.      0.9360E-01  0.5386E-02  0.1763E-02  0.5977E-04   0.000       0.000       0.000       0.000        94.262     6.201       31.29      0.2308E-02  0.3836E-04   0.000      0.2000E+26  0.2424       23.00     -0.7160E-02
   351.2       0.000       0.000       140.7       178.1       0.000       1041.      0.9361E-01  0.7294E-02  0.2716E-02  0.1158E-03   0.000       0.000       0.000       0.000        94.293     7.010       30.07      0.3544E-02  0.7360E-04   0.000      0.2000E+26  0.2921       20.88     -0.6594E-02
   351.4       0.000       0.000       163.5       204.8       0.000       1043.      0.9362E-01  0.9461E-02  0.3988E-02  0.2094E-03   0.000       0.000       0.000       0.000        94.324     7.772       29.07      0.5055E-02  0.1284E-03   0.000      0.2000E+26  0.3421       19.28     -0.6042E-02
   351.6       0.000       0.000       186.2       231.4       0.000       1045.      0.9362E-01  0.1177E-01  0.5518E-02  0.3508E-03   0.000       0.000       0.000       0.000        94.354     8.494       28.23      0.6776E-02  0.2094E-03   0.000      0.2000E+26  0.3924       17.85     -0.5493E-02
   351.8       0.000       0.000       208.9       258.0       0.000       1046.      0.9363E-01  0.1424E-01  0.7353E-02  0.5486E-03   0.000       0.000       0.000       0.000        94.385     9.182       27.51      0.8699E-02  0.3231E-03   0.000      0.2000E+26  0.4432       16.80     -0.4944E-02
   352.0       0.000       0.000       231.6       284.7       0.000       1048.      0.9364E-01  0.1685E-01  0.9527E-02  0.8386E-03   0.000       0.000       0.000       0.000        94.416     9.840       26.89      0.1083E-01  0.4775E-03   0.000      0.2000E+26  0.4942       15.90     -0.4395E-02
   352.2       0.000       0.000       254.2       319.6       0.000       1049.      0.8335E-01  0.1956E-01  0.1195E-01  0.1197E-02   0.000       0.000       0.000       0.000        94.444     10.47       26.34      0.1318E-01  0.6808E-03   0.000      0.2000E+26  0.5457       15.13     -0.3846E-02
   352.4       0.000       0.000       276.9       354.5       0.000       1051.      0.7305E-01  0.2233E-01  0.1473E-01  0.1693E-02   0.000       0.000       0.000       0.000        94.471     11.08       25.85      0.1575E-01  0.9417E-03   0.000      0.2000E+26  0.5974       14.46     -0.3298E-02
   352.6       0.000       0.000       291.9       389.4       0.000       1052.      0.6276E-01  0.2513E-01  0.1765E-01  0.2250E-02   0.000       0.000       0.000       0.000        94.498     11.66       25.41      0.1853E-01  0.1268E-02   0.000      0.2000E+26  0.6496       13.96     -0.2935E-02
   352.8       0.000       0.000       306.3       424.3       0.000       1053.      0.5246E-01  0.2791E-01  0.2091E-01  0.3022E-02   0.000       0.000       0.000       0.000        94.525     12.22       25.02      0.2153E-01  0.1665E-02   0.000      0.2000E+26  0.7020       13.61     -0.2585E-02
   353.0       0.000       0.000       320.8       459.2       0.000       1055.      0.4217E-01  0.3068E-01  0.2425E-01  0.3847E-02   0.000       0.000       0.000       0.000        94.553     12.77       24.66      0.2475E-01  0.2141E-02   0.000      0.2000E+26  0.7548       13.28     -0.2235E-02
   353.2       0.000       0.000       335.3       474.3       0.000       1056.      0.3747E-01  0.3341E-01  0.2788E-01  0.4968E-02   0.000       0.000       0.000       0.000        94.576     13.30       24.34      0.2819E-01  0.2701E-02   0.000      0.2000E+26  0.8079       12.97     -0.1884E-02
   353.4       0.000       0.000       349.7       489.5       0.000       1057.      0.3276E-01  0.3614E-01  0.3155E-01  0.6127E-02   0.000       0.000       0.000       0.000        94.600     13.81       24.03      0.3185E-01  0.3352E-02   0.000      0.2000E+26  0.8613       12.68     -0.1534E-02
   353.6       0.000       0.000       361.1       504.6       0.000       1058.      0.2806E-01  0.3879E-01  0.3538E-01  0.7617E-02   0.000       0.000       0.000       0.000        94.624     14.30       23.75      0.3573E-01  0.4102E-02   0.000      0.2000E+26  0.9150       12.39     -0.1259E-02
   353.8       0.000       0.000       364.7       519.7       0.000       1059.      0.2336E-01  0.4141E-01  0.3918E-01  0.9168E-02   0.000       0.000       0.000       0.000        94.648     14.79       23.49      0.3982E-01  0.4952E-02   0.000      0.2000E+26  0.9690       12.32     -0.1171E-02
   354.0       0.000       0.000       363.9       534.9       0.000       1060.      0.1866E-01  0.4385E-01  0.4284E-01  0.1107E-01   0.000       0.000       0.000       0.000        94.671     15.25       23.25      0.4411E-01  0.5898E-02   0.000      0.2000E+26   1.000       12.34     -0.1190E-02
   354.2       0.000       0.000       363.2       536.4      0.4807E-02   1299.      0.5888E-01  0.4626E-01  0.4641E-01  0.1310E-01   0.000       0.000       0.000       0.000        94.691     15.71       23.02      0.4859E-01  0.6941E-02   0.000      0.2000E+26  0.2000E+26   12.35     -0.1209E-02
   354.4      0.5938E-04  0.1188E-04   362.4       537.9      0.9613E-02   1537.      0.9910E-01  0.4856E-01  0.4972E-01  0.1545E-01   0.000       0.000       0.000       0.000        94.711     16.15       22.81      0.5325E-01  0.2000E+26  0.9085E-01  0.9857      0.2000E+26   12.37     -0.1228E-02
   354.6      0.4225E-03  0.9637E-04   361.6       539.4      0.1442E-01   1775.      0.1393      0.5085E-01  0.5290E-01  0.1794E-01   0.000       0.000       0.000       0.000        94.731     16.59       22.61      0.5808E-01  0.2000E+26  0.6464      0.9670      0.2000E+26   12.31     -0.1247E-02
   354.8      0.9809E-03  0.2925E-03   361.1       540.9      0.1923E-01   2014.      0.1795      0.5312E-01  0.5589E-01  0.2066E-01   0.000       0.000       0.000       0.000        94.752     17.01       22.42      0.6307E-01  0.2000E+26   1.501      0.9483      0.2000E+26   12.32     -0.1258E-02
   355.0      0.1628E-02  0.6182E-03   362.8       542.5      0.2403E-01   2252.      0.2198      0.5542E-01  0.5871E-01  0.2355E-01   0.000       0.000       0.000       0.000        94.772     17.42       22.24      0.6822E-01  0.2000E+26   2.491      0.9297      0.2000E+26   12.29     -0.1217E-02
   355.2      0.2282E-02  0.1075E-02   365.1       547.7      0.4041       2329.      0.9383      0.5775E-01  0.6136E-01  0.2660E-01   0.000       0.000       0.000       0.000        94.788     17.82       22.08      0.7352E-01  0.2000E+26   3.492      0.9111      0.2000E+26   12.25     -0.1161E-02
   355.4      0.2864E-02  0.1648E-02   367.5       553.0      0.7841       2406.       1.657      0.6018E-01  0.6377E-01  0.2985E-01   0.000       0.000       0.000       0.000        94.804     18.21       21.92      0.7896E-01  0.2000E+26   4.382      0.8926      0.2000E+26   12.20     -0.1104E-02
   355.6      0.1603E-01  0.4854E-02   369.8       558.2       1.164       2484.       2.375      0.6269E-01  0.6603E-01  0.3322E-01   0.000       0.000       0.000       0.000        94.821     18.59       21.77      0.8453E-01  0.2000E+26   24.53      0.8743      0.2000E+26   12.11     -0.1047E-02
   355.8      0.2758E-01  0.1037E-01   372.2       563.5       1.544       2561.       3.094      0.6536E-01  0.6804E-01  0.3674E-01   0.000       0.000       0.000       0.000        94.837     18.97       21.62      0.9024E-01  0.2000E+26   42.20      0.8561      0.2000E+26   12.07     -0.9906E-03
   356.0      0.2831E-01  0.1603E-01   374.5       568.7       1.924       2638.       3.812      0.6810E-01  0.6995E-01  0.4032E-01   0.000       0.000       0.000       0.000        94.854     19.33       21.48      0.9606E-01  0.2000E+26   43.31      0.8381      0.2000E+26   12.03     -0.9352E-03
   356.2      0.2847E-01  0.2173E-01   374.4       568.7       2.957       2645.       4.211      0.7105E-01  0.7211E-01  0.4345E-01   0.000       0.000       0.000       0.000        94.867     19.69       21.35      0.1020      0.2000E+26   43.56      0.8202      0.2000E+26   12.03     -0.9363E-03
   356.4      0.2844E-01  0.2741E-01   374.1       568.6       3.989       2651.       4.611      0.7403E-01  0.7432E-01  0.4649E-01   0.000       0.000       0.000       0.000        94.879     20.03       21.23      0.1080      0.2000E+26   43.52      0.8026      0.2000E+26   12.03     -0.9434E-03
   356.6      0.2828E-01  0.3307E-01   373.7       568.5       5.022       2657.       5.010      0.7731E-01  0.7689E-01  0.4886E-01   0.000       0.000       0.000       0.000        94.892     20.37       21.11      0.1141      0.2000E+26   43.26      0.7852      0.2000E+26   12.00     -0.9528E-03
   356.8      0.3096E-01  0.3926E-01   373.4       568.4       6.054       2663.       5.410      0.8062E-01  0.7948E-01  0.5118E-01   0.000       0.000       0.000       0.000        94.905     20.71       21.00      0.1203      0.2000E+26   47.36      0.7680      0.2000E+26   12.00     -0.9622E-03
   357.0      0.3334E-01  0.4593E-01   373.0       568.3       7.086       2670.       5.809      0.8425E-01  0.8207E-01  0.5318E-01   0.000       0.000       0.000       0.000        94.918     21.03       20.89      0.1266      0.2000E+26   51.01      0.7511      0.2000E+26   12.01     -0.9716E-03
   357.2      0.3303E-01  0.5253E-01   373.4       575.6       8.969       2672.       5.900      0.8797E-01  0.8458E-01  0.5517E-01   0.000       0.000       0.000       0.000        94.927     21.35       20.79      0.1329      0.2000E+26   50.53      0.7345      0.2000E+26   12.00     -0.9612E-03
   357.4      0.3269E-01  0.5907E-01   374.7       582.8       10.85       2675.       5.991      0.9212E-01  0.8677E-01  0.5711E-01   0.000       0.000       0.000       0.000        94.936     21.66       20.68      0.1393      0.2000E+26   50.02      0.7182      0.2000E+26   11.98     -0.9304E-03
   357.6      0.3243E-01  0.6556E-01   377.3       590.0       12.73       2677.       6.081      0.9643E-01  0.8886E-01  0.5902E-01   0.000       0.000       0.000       0.000        94.945     21.97       20.59      0.1458      0.2000E+26   49.62      0.7022      0.2000E+26   11.90     -0.8674E-03
   357.8      0.3198E-01  0.7195E-01   379.9       597.3       14.62       2680.       6.172      0.1011      0.9073E-01  0.6081E-01   0.000       0.000       0.000       0.000        94.954     22.27       20.50      0.1522      0.2000E+26   48.92      0.6865      0.2000E+26   11.86     -0.8045E-03
   358.0      0.3193E-01  0.7834E-01   382.5       604.5       16.50       2682.       6.263      0.1061      0.9258E-01  0.6245E-01   0.000       0.000       0.000       0.000        94.963     22.56       20.41      0.1588      0.2000E+26   48.86      0.6712      0.2000E+26   11.82     -0.7415E-03
   358.2      0.3188E-01  0.8472E-01   385.1       604.1       19.36       2685.       6.268      0.1113      0.9439E-01  0.6387E-01   0.000       0.000       0.000       0.000        94.969     22.84       20.32      0.1653      0.2000E+26   48.78      0.6562      0.2000E+26   11.77     -0.6786E-03
   358.4      0.3182E-01  0.9108E-01   386.7       603.6       22.22       2687.       6.273      0.1168      0.9602E-01  0.6524E-01   0.000       0.000       0.000       0.000        94.974     23.12       20.24      0.1720      0.2000E+26   48.68      0.6416      0.2000E+26   11.75     -0.6397E-03
   358.6      0.3174E-01  0.9743E-01   387.4       603.1       25.08       2689.       6.279      0.1226      0.9748E-01  0.6655E-01   0.000       0.000       0.000       0.000        94.980     23.40       20.20      0.1786      0.2000E+26   48.57      0.6274      0.2000E+26   11.72     -0.6233E-03
   358.8      0.3166E-01  0.1038       386.3       602.7       27.94       2692.       6.284      0.1285      0.9877E-01  0.6783E-01   0.000       0.000       0.000       0.000        94.985     23.69       20.21      0.1853      0.2000E+26   48.44      0.6136      0.2000E+26   11.73     -0.6484E-03
   359.0      0.3156E-01  0.1101       385.3       602.2       30.80       2694.       6.290      0.1345      0.9998E-01  0.6910E-01   0.000       0.000       0.000       0.000        94.991     23.96       20.21      0.1921      0.2000E+26   48.29      0.6002      0.2000E+26   11.75     -0.6735E-03
   359.2      0.3145E-01  0.1164       384.3       594.2       34.68       2696.       6.259      0.1405      0.1012      0.7031E-01   0.000       0.000       0.000       0.000        94.993     24.23       20.21      0.1989      0.2000E+26   48.12      0.5873      0.2000E+26   11.77     -0.6985E-03
   359.4      0.3134E-01  0.1226       383.2       586.2       38.57       2698.       6.229      0.1465      0.1024      0.7150E-01   0.000       0.000       0.000       0.000        94.995     24.49       20.21      0.2057      0.2000E+26   47.95      0.5748      0.2000E+26   11.78     -0.7236E-03
   359.6      0.3121E-01  0.1289       381.2       578.1       42.45       2700.       6.199      0.1527      0.1036      0.7258E-01  0.1861E-04   0.000       0.000       0.000        94.996     24.75       20.21      0.2125      0.2000E+26   47.75      0.5627      0.2000E+26   11.81     -0.7718E-03
   359.8      0.3107E-01  0.1351       378.5       570.1       46.34       2702.       6.168      0.1588      0.1046      0.7365E-01  0.4009E-04   0.000       0.000       0.000        94.998     25.00       20.21      0.2194      0.2000E+26   47.54      0.5511      0.2000E+26   11.85     -0.8386E-03
   360.0      0.3092E-01  0.1413       374.3       562.1       50.22       2704.       6.138      0.1659      0.1051      0.7381E-01  0.4564E-03   0.000       0.000       0.000        95.000     25.26       20.21      0.2263      0.2000E+26   47.31      0.5400      0.2000E+26   11.92     -0.9403E-03
   360.2      0.3076E-01  0.1474       369.9       557.2       55.08       2705.       6.090      0.1731      0.1055      0.7394E-01  0.9179E-03   0.000       0.000       0.000        94.998     25.51       20.21      0.2333      0.2000E+26   47.06      0.5293      0.2000E+26   12.00     -0.1045E-02
   360.4      0.3058E-01  0.1535       365.6       552.3       59.94       2707.       6.043      0.1806      0.1052      0.7391E-01  0.1735E-02   0.000       0.000       0.000        94.996     25.76       20.21      0.2402      0.2000E+26   46.79      0.5192      0.2000E+26   12.07     -0.1150E-02
   360.6      0.3041E-01  0.1596       361.3       547.3       64.80       2708.       5.995      0.1881      0.1049      0.7368E-01  0.2777E-02   0.000       0.000       0.000        94.995     26.00       20.21      0.2472      0.2000E+26   46.52      0.5095      0.2000E+26   12.15     -0.1255E-02
   360.8      0.3022E-01  0.1657       356.9       542.4       69.66       2710.       5.948      0.1957      0.1042      0.7270E-01  0.4667E-02   0.000       0.000       0.000        94.993     26.25       20.21      0.2542      0.2000E+26   46.23      0.5003      0.2000E+26   12.23     -0.1360E-02
   361.0      0.3003E-01  0.1717       357.6       537.5       74.52       2711.       5.900      0.2031      0.1036      0.7161E-01  0.6733E-02   0.000       0.000       0.000        94.991     26.49       20.21      0.2613      0.2000E+26   45.94      0.4916      0.2000E+26   12.22     -0.1345E-02
   361.2      0.2984E-01  0.1776       359.1       542.9       80.23       2712.       5.850      0.2103      0.1033      0.7030E-01  0.9167E-02   0.000       0.000       0.000        94.985     26.73       20.21      0.2683      0.2000E+26   45.66      0.4834      0.2000E+26   12.19     -0.1307E-02
   361.4      0.2966E-01  0.1836       361.0       548.2       85.93       2713.       5.801      0.2172      0.1031      0.6907E-01  0.1167E-01   0.000       0.000       0.000        94.980     26.97       20.21      0.2754      0.2000E+26   45.37      0.4757      0.2000E+26   12.16     -0.1261E-02
   361.6      0.2948E-01  0.1895       362.9       553.5       91.64       2714.       5.751      0.2238      0.1030      0.6793E-01  0.1425E-01   0.000       0.000       0.000        94.974     27.20       20.21      0.2826      0.2000E+26   45.10      0.4685      0.2000E+26   12.14     -0.1216E-02
   361.8      0.2930E-01  0.1953       364.8       558.8       97.34       2715.       5.702      0.2304      0.1030      0.6666E-01  0.1696E-01   0.000       0.000       0.000        94.969     27.44       20.21      0.2898      0.2000E+26   44.83      0.4619      0.2000E+26   12.11     -0.1171E-02
   362.0      0.2913E-01  0.2011       366.6       564.1       103.0       2716.       5.652      0.2370      0.1031      0.6527E-01  0.1979E-01   0.000       0.000       0.000        94.963     27.67       20.21      0.2970      0.2000E+26   44.57      0.4557      0.2000E+26   12.07     -0.1127E-02
   362.2      0.2896E-01  0.2069       368.3       568.7       109.4       2716.       5.608      0.2436      0.1034      0.6344E-01  0.2290E-01   0.000       0.000       0.000        94.954     27.90       20.21      0.3043      0.2000E+26   44.32      0.4500      0.2000E+26   12.04     -0.1085E-02
   362.4      0.2880E-01  0.2127       369.9       573.3       115.8       2717.       5.565      0.2501      0.1038      0.6139E-01  0.2616E-01   0.000       0.000       0.000        94.945     28.12       20.21      0.3116      0.2000E+26   44.07      0.4449      0.2000E+26   12.01     -0.1045E-02
   362.6      0.2865E-01  0.2184       371.5       577.9       122.1       2717.       5.521      0.2570      0.1045      0.5845E-01  0.2968E-01   0.000       0.000       0.000        94.936     28.35       20.21      0.3189      0.2000E+26   43.84      0.4402      0.2000E+26   12.01     -0.1006E-02
   362.8      0.2851E-01  0.2241       373.1       582.4       128.5       2718.       5.478      0.2639      0.1054      0.5527E-01  0.3327E-01   0.000       0.000       0.000        94.927     28.58       20.21      0.3263      0.2000E+26   43.62      0.4361      0.2000E+26   11.99     -0.9674E-03
   363.0      0.2838E-01  0.2298       374.8       587.0       134.8       2718.       5.434      0.2717      0.1066      0.5138E-01  0.3648E-01   0.000       0.000       0.000        94.918     28.80       20.21      0.3338      0.2000E+26   43.42      0.4324      0.2000E+26   11.96     -0.9284E-03
   363.2      0.2826E-01  0.2355       375.9       587.9       141.6       2718.       5.402      0.2795      0.1078      0.4742E-01  0.3963E-01   0.000       0.000       0.000        94.905     29.02       20.21      0.3413      0.2000E+26   43.24      0.4293      0.2000E+26   11.94     -0.9000E-03
   363.4      0.2816E-01  0.2411       377.1       588.8       148.4       2718.       5.370      0.2873      0.1090      0.4402E-01  0.4231E-01   0.000       0.000       0.000        94.892     29.24       20.21      0.3488      0.2000E+26   43.08      0.4266      0.2000E+26   11.92     -0.8728E-03
   363.6      0.2807E-01  0.2467       377.3       589.6       155.2       2718.       5.338      0.2952      0.1102      0.4065E-01  0.4504E-01   0.000       0.000       0.000        94.879     29.45       20.21      0.3564      0.2000E+26   42.94      0.4245      0.2000E+26   11.95     -0.8663E-03
   363.8      0.2799E-01  0.2523       377.6       590.5       162.0       2718.       5.305      0.3028      0.1109      0.3751E-01  0.4809E-01   0.000       0.000       0.000        94.867     29.67       20.21      0.3641      0.2000E+26   42.82      0.4228      0.2000E+26   11.95     -0.8598E-03
   364.0      0.2792E-01  0.2579       377.9       591.4       168.8       2718.       5.273      0.3103      0.1114      0.3450E-01  0.5142E-01   0.000       0.000       0.000        94.854     29.88       20.21      0.3717      0.2000E+26   42.71      0.4215      0.2000E+26   11.95     -0.8533E-03
   364.2      0.2786E-01  0.2635       378.2       599.2       175.9       2717.       5.254      0.3168      0.1116      0.3194E-01  0.5566E-01   0.000       0.000       0.000        94.837     30.10       20.21      0.3795      0.2000E+26   42.62      0.4208      0.2000E+26   11.94     -0.8447E-03
   364.4      0.2781E-01  0.2690       379.2       607.1       182.9       2716.       5.235      0.3231      0.1116      0.2961E-01  0.6002E-01   0.000       0.000       0.000        94.821     30.31       20.21      0.3873      0.2000E+26   42.55      0.4205      0.2000E+26   11.92     -0.8208E-03
   364.6      0.2778E-01  0.2746       380.4       614.9       190.0       2716.       5.216      0.3291      0.1114      0.2771E-01  0.6459E-01   0.000       0.000       0.000        94.804     30.52       20.21      0.3951      0.2000E+26   42.50      0.4206      0.2000E+26   11.95     -0.7909E-03
   364.8      0.2777E-01  0.2801       383.4       622.7       197.0       2715.       5.196      0.3351      0.1112      0.2591E-01  0.6910E-01   0.000       0.000       0.000        94.788     30.73       20.21      0.4030      0.2000E+26   42.49      0.4212      0.2000E+26   11.90     -0.7195E-03
   365.0      0.2778E-01  0.2857       386.3       630.6       204.1       2715.       5.177      0.3411      0.1109      0.2425E-01  0.7353E-01   0.000       0.000       0.000        94.772     30.93       20.21      0.4110      0.2000E+26   42.50      0.4222      0.2000E+26   11.85     -0.6480E-03
   365.2      0.2780E-01  0.2913       389.3       638.8       211.2       2714.       5.174      0.3470      0.1107      0.2258E-01  0.7812E-01   0.000       0.000       0.000        94.752     31.14       20.21      0.4190      0.2000E+26   42.54      0.4236      0.2000E+26   11.81     -0.5766E-03
   365.4      0.2785E-01  0.2968       392.2       647.1       218.3       2713.       5.170      0.3529      0.1104      0.2092E-01  0.8282E-01   0.000       0.000       0.000        94.731     31.34       20.21      0.4271      0.2000E+26   42.60      0.4255      0.2000E+26   11.76     -0.5049E-03
   365.6      0.2790E-01  0.3024       395.4       655.3       225.4       2712.       5.167      0.3585      0.1101      0.1931E-01  0.8792E-01   0.000       0.000       0.000        94.711     31.55       20.21      0.4352      0.2000E+26   42.69      0.4277      0.2000E+26   11.77     -0.4294E-03
   365.8      0.2798E-01  0.3080       398.5       663.5       232.6       2711.       5.163      0.3639      0.1097      0.1772E-01  0.9320E-01   0.000       0.000       0.000        94.691     31.75       20.21      0.4435      0.2000E+26   42.81      0.4304      0.2000E+26   11.72     -0.3538E-03
   366.0      0.2807E-01  0.3136       402.0       671.8       239.7       2710.       5.160      0.3688      0.1096      0.1623E-01  0.9889E-01   0.000       0.000       0.000        94.671     31.95       20.21      0.4518      0.2000E+26   42.95      0.4334      0.2000E+26   11.66     -0.2696E-03
   366.2      0.2818E-01  0.3192       405.5       672.3       246.8       2709.       5.171      0.3734      0.1096      0.1476E-01  0.1047       0.000       0.000       0.000        94.648     32.15       20.21      0.4601      0.2000E+26   43.12      0.4367      0.2000E+26   11.61     -0.1852E-03
   366.4      0.2831E-01  0.3249       408.9       672.8       253.8       2708.       5.183      0.3779      0.1097      0.1337E-01  0.1106       0.000       0.000       0.000        94.624     32.35       20.21      0.4686      0.2000E+26   43.31      0.4405      0.2000E+26   11.56     -0.1007E-03
   366.6      0.2845E-01  0.3306       412.4       673.4       260.9       2706.       5.195      0.3823      0.1098      0.1200E-01  0.1165       0.000       0.000       0.000        94.600     32.54       20.21      0.4771      0.2000E+26   43.53      0.4445      0.2000E+26   11.57     -0.1631E-04
   366.8      0.2860E-01  0.3363       413.1       673.9       268.0       2705.       5.206      0.3865      0.1100      0.1073E-01  0.1225       0.000       0.000       0.000        94.577     32.74       20.21      0.4856      0.2000E+26   43.76      0.4489      0.2000E+26   11.56       0.000    
   367.0      0.2878E-01  0.3421       412.7       674.4       275.1       2704.       5.218      0.3906      0.1101      0.9494E-02  0.1285       0.000       0.000       0.000        94.553     32.93       20.21      0.4943      0.2000E+26   44.03      0.4536      0.2000E+26   11.57     -0.9300E-05
   367.2      0.2895E-01  0.3479       410.0       665.1       282.0       2702.       5.242      0.3947      0.1098      0.8450E-02  0.1347       0.000       0.000       0.000        94.526     33.12       20.21      0.5030      0.2000E+26   44.30      0.4586      0.2000E+26   11.61     -0.7561E-04
   367.4      0.2915E-01  0.3537       405.4       655.7       289.0       2701.       5.266      0.3990      0.1093      0.7402E-02  0.1408       0.000       0.000       0.000        94.498     33.32       20.21      0.5118      0.2000E+26   44.59      0.4639      0.2000E+26   11.68     -0.1860E-03
   367.6      0.2935E-01  0.3596       400.9       646.4       296.0       2699.       5.291      0.4038      0.1087      0.6345E-02  0.1464       0.000       0.000       0.000        94.471     33.51       20.21      0.5207      0.2000E+26   44.91      0.4695      0.2000E+26   11.83     -0.2964E-03
   367.8      0.2957E-01  0.3655       396.3       637.0       302.9       2698.       5.315      0.4092      0.1079      0.5251E-02  0.1516       0.000       0.000       0.000        94.444     33.70       20.21      0.5296      0.2000E+26   45.24      0.4753      0.2000E+26   11.90     -0.4069E-03
   368.0      0.2980E-01  0.3714       392.4       627.7       309.9       2696.       5.339      0.4158      0.1068      0.4099E-02  0.1559       0.000       0.000       0.000        94.416     33.89       20.21      0.5386      0.2000E+26   45.59      0.4814      0.2000E+26   11.96     -0.5017E-03
   368.2      0.3004E-01  0.3774       392.0       629.7       316.7       2694.       5.373      0.4223      0.1056      0.2970E-02  0.1603       0.000       0.000       0.000        94.385     34.07       20.21      0.5476      0.2000E+26   45.95      0.4877      0.2000E+26   11.97     -0.5114E-03
   368.4      0.3028E-01  0.3835       391.6       631.7       323.5       2693.       5.406      0.4289      0.1043      0.1863E-02  0.1648       0.000       0.000       0.000        94.354     34.26       20.21      0.5566      0.2000E+26   46.33      0.4943      0.2000E+26   11.98     -0.5212E-03
   368.6      0.3053E-01  0.3896       392.5       633.8       330.3       2691.       5.440      0.4354      0.1030      0.1030E-02  0.1692       0.000       0.000       0.000        94.324     34.45       20.21      0.5657      0.2000E+26   46.71      0.5010      0.2000E+26   12.05     -0.4992E-03
   368.8      0.3079E-01  0.3958       393.5       635.8       337.0       2689.       5.474      0.4417      0.1016      0.3677E-03  0.1735       0.000       0.000       0.000        94.293     34.63       20.21      0.5748      0.2000E+26   47.11      0.5080      0.2000E+26   12.03     -0.4740E-03
   369.0      0.3105E-01  0.4020       394.3       637.8       343.8       2687.       5.508      0.4479      0.1005      0.1164E-03  0.1774       0.000       0.000       0.000        94.262     34.81       20.21      0.5840      0.2000E+26   47.51      0.5151      0.2000E+26   12.02     -0.4558E-03
   369.2      0.3132E-01  0.4082       394.9       627.1       350.4       2686.       5.547      0.4540      0.9940E-01  0.1545E-04  0.1811       0.000       0.000       0.000        94.227     35.00       20.21      0.5932      0.2000E+26   47.92      0.5224      0.2000E+26   12.01     -0.4418E-03
   369.4      0.3160E-01  0.4146       393.9       616.4       357.0       2684.       5.587      0.4603      0.9882E-01   0.000      0.1840       0.000       0.000       0.000        94.193     35.18       20.21      0.6025      0.2000E+26   48.34      0.5298      0.2000E+26   12.02     -0.4640E-03
   369.6      0.3187E-01  0.4209       390.0       605.6       363.6       2682.       5.626      0.4665      0.9832E-01   0.000      0.1868       0.000       0.000       0.000        94.158     35.36       20.21      0.6117      0.2000E+26   48.76      0.5374      0.2000E+26   12.18     -0.5586E-03
   369.8      0.3214E-01  0.4274       386.1       594.9       370.2       2680.       5.666      0.4728      0.9835E-01   0.000      0.1889       0.000       0.000       0.000        94.124     35.54       20.21      0.6210      0.2000E+26   49.18      0.5451      0.2000E+26   12.25     -0.6533E-03
   370.0      0.3242E-01  0.4338       382.2       584.2       376.8       2678.       5.705      0.4791      0.9840E-01   0.000      0.1910       0.000       0.000       0.000        94.089     35.72       20.21      0.6302      0.2000E+26   49.60      0.5530      0.2000E+26   12.32     -0.7479E-03
   370.2      0.3269E-01  0.4404       378.3       583.1       383.2       2676.       5.746      0.4851      0.9856E-01   0.000      0.1931       0.000       0.000       0.000        94.051     35.90       20.21      0.6395      0.2000E+26   50.01      0.5609      0.2000E+26   12.38     -0.8425E-03
   370.4      0.3295E-01  0.4470       376.0       582.0       389.6       2674.       5.787      0.4910      0.9867E-01   0.000      0.1954       0.000       0.000       0.000        94.013     36.07       20.21      0.6488      0.2000E+26   50.42      0.5690      0.2000E+26   12.42     -0.8984E-03
   370.6      0.3322E-01  0.4536       374.6       581.0       396.0       2672.       5.828      0.4966      0.9855E-01   0.000      0.1981       0.000       0.000       0.000        93.975     36.25       20.21      0.6581      0.2000E+26   50.82      0.5771      0.2000E+26   12.55     -0.9332E-03
   370.8      0.3347E-01  0.4603       373.7       579.9       402.4       2670.       5.868      0.5022      0.9827E-01   0.000      0.2010       0.000       0.000       0.000        93.937     36.43       20.21      0.6674      0.2000E+26   51.22      0.5853      0.2000E+26   12.57     -0.9539E-03
   371.0      0.3373E-01  0.4671       374.5       578.8       408.8       2668.       5.909      0.5078      0.9766E-01   0.000      0.2043       0.000       0.000       0.000        93.899     36.60       20.21      0.6767      0.2000E+26   51.60      0.5935      0.2000E+26   12.56     -0.9350E-03
   371.2      0.3398E-01  0.4739       375.3       578.5       414.9       2666.       5.948      0.5136      0.9700E-01   0.000      0.2074       0.000       0.000       0.000        93.857     36.78       20.21      0.6860      0.2000E+26   51.99      0.6018      0.2000E+26   12.54     -0.9161E-03
   371.4      0.3422E-01  0.4807       376.0       578.2       421.1       2664.       5.987      0.5196      0.9630E-01   0.000      0.2104       0.000       0.000       0.000        93.816     36.95       20.21      0.6954      0.2000E+26   52.36      0.6101      0.2000E+26   12.53     -0.8983E-03
   371.6      0.3446E-01  0.4876       376.7       577.9       427.3       2662.       6.026      0.5262      0.9578E-01   0.000      0.2126       0.000       0.000       0.000        93.774     37.12       20.21      0.7047      0.2000E+26   52.72      0.6185      0.2000E+26   12.63     -0.8806E-03
   371.8      0.3468E-01  0.4945       376.8       577.6       433.4       2660.       6.065      0.5335      0.9543E-01   0.000      0.2140       0.000       0.000       0.000        93.733     37.29       20.21      0.7139      0.2000E+26   53.07      0.6269      0.2000E+26   12.63     -0.8780E-03
   372.0      0.3491E-01  0.5015       376.1       577.3       439.6       2658.       6.104      0.5411      0.9544E-01   0.000      0.2146       0.000       0.000       0.000        93.691     37.46       20.21      0.7232      0.2000E+26   53.41      0.6352      0.2000E+26   12.64     -0.8969E-03
   372.2      0.3512E-01  0.5085       375.3       570.3       445.5       2655.       6.139      0.5490      0.9564E-01   0.000      0.2147       0.000       0.000       0.000        93.646     37.63       20.21      0.7324      0.2000E+26   53.74      0.6436      0.2000E+26   12.65     -0.9158E-03
   372.4      0.3533E-01  0.5156       374.5       563.3       451.5       2653.       6.174      0.5571      0.9605E-01   0.000      0.2145       0.000       0.000       0.000        93.601     37.80       20.21      0.7416      0.2000E+26   54.06      0.6519      0.2000E+26   12.67     -0.9347E-03
   372.6      0.3553E-01  0.5227       373.7       556.3       457.4       2651.       6.209      0.5652      0.9651E-01   0.000      0.2141       0.000       0.000       0.000        93.556     37.97       20.21      0.7507      0.2000E+26   54.36      0.6603      0.2000E+26   12.80     -0.9536E-03
   372.8      0.3572E-01  0.5298       371.4       549.3       463.3       2649.       6.244      0.5737      0.9676E-01   0.000      0.2134       0.000       0.000       0.000        93.510     38.14       20.21      0.7599      0.2000E+26   54.65      0.6686      0.2000E+26   12.84     -0.1009E-02
   373.0      0.3590E-01  0.5370       367.3       542.3       469.2       2647.       6.278      0.5823      0.9698E-01   0.000      0.2127       0.000       0.000       0.000        93.465     38.30       20.21      0.7689      0.2000E+26   54.92      0.6768      0.2000E+26   12.92     -0.1108E-02
   373.2      0.3606E-01  0.5442       363.2       524.1       474.9       2644.       6.306      0.5909      0.9665E-01   0.000      0.2122       0.000       0.000       0.000        93.417     38.47       20.21      0.7780      0.2000E+26   55.17      0.6850      0.2000E+26   13.00     -0.1208E-02
   373.4      0.3621E-01  0.5515       357.1       505.9       480.6       2642.       6.333      0.5993      0.9625E-01   0.000      0.2120       0.000       0.000       0.000        93.368     38.64       20.21      0.7870      0.2000E+26   55.39      0.6932      0.2000E+26   13.12     -0.1356E-02
   373.6      0.3633E-01  0.5587       350.8       487.7       486.2       2640.       6.361      0.6053      0.9525E-01   0.000      0.2146       0.000       0.000       0.000        93.319     38.80       20.21      0.7960      0.2000E+26   55.59      0.7013      0.2000E+26   13.37     -0.1507E-02
   373.8      0.3645E-01  0.5660       344.0       469.5       491.9       2638.       6.388      0.6110      0.9418E-01   0.000      0.2173       0.000       0.000       0.000        93.271     38.97       20.21      0.8050      0.2000E+26   55.77      0.7093      0.2000E+26   13.51     -0.1672E-02
   374.0      0.3655E-01  0.5733       336.3       451.3       497.6       2635.       6.416      0.6158      0.9289E-01   0.000      0.2208       0.000       0.000       0.000        93.222     39.13       20.21      0.8140      0.2000E+26   55.92      0.7172      0.2000E+26   13.67     -0.1859E-02
   374.2      0.3663E-01  0.5807       328.6       425.5       502.9       2633.       6.434      0.6205      0.9154E-01   0.000      0.2245       0.000       0.000       0.000        93.170     39.29       20.21      0.8229      0.2000E+26   56.04      0.7251      0.2000E+26   13.84     -0.2046E-02
   374.4      0.3670E-01  0.5880       317.4       399.7       508.3       2631.       6.451      0.6247      0.9006E-01   0.000      0.2286       0.000       0.000       0.000        93.118     39.45       20.21      0.8319      0.2000E+26   56.15      0.7329      0.2000E+26   14.10     -0.2317E-02
   374.6      0.3676E-01  0.5954       305.3       373.9       513.7       2628.       6.469      0.6289      0.8843E-01   0.000      0.2326       0.000       0.000       0.000        93.066     39.61       20.21      0.8408      0.2000E+26   56.24      0.7405      0.2000E+26   14.54     -0.2611E-02
   374.8      0.3679E-01  0.6027       293.1       348.1       519.1       2626.       6.487      0.6329      0.8661E-01   0.000      0.2365       0.000       0.000       0.000        93.014     39.77       20.21      0.8497      0.2000E+26   56.29      0.7481      0.2000E+26   14.86     -0.2904E-02
   375.0      0.3681E-01  0.6101       281.0       322.3       524.5       2624.       6.505      0.6370      0.8471E-01   0.000      0.2403       0.000       0.000       0.000        92.961     39.93       20.21      0.8586      0.2000E+26   56.32      0.7556      0.2000E+26   15.20     -0.3197E-02
   375.2      0.3682E-01  0.6174       268.9       296.2       529.5       2621.       6.512      0.6410      0.8276E-01   0.000      0.2441       0.000       0.000       0.000        92.906     40.09       20.21      0.8675      0.2000E+26   56.33      0.7629      0.2000E+26   15.56     -0.3491E-02
   375.4      0.3681E-01  0.6248       252.5       270.1       534.6       2619.       6.519      0.6457      0.8058E-01   0.000      0.2466       0.000       0.000       0.000        92.850     40.25       20.21      0.8763      0.2000E+26   56.32      0.7702      0.2000E+26   16.09     -0.3888E-02
   375.6      0.3677E-01  0.6322       232.6       244.1       539.7       2617.       6.526      0.6509      0.7831E-01   0.000      0.2485       0.000       0.000       0.000        92.795     40.41       20.21      0.8851      0.2000E+26   56.26      0.7773      0.2000E+26   16.98     -0.4369E-02
   375.8      0.3673E-01  0.6395       212.7       218.0       544.7       2614.       6.533      0.6565      0.7586E-01   0.000      0.2496       0.000       0.000       0.000        92.739     40.57       20.21      0.8939      0.2000E+26   56.19      0.7843      0.2000E+26   17.81     -0.4851E-02
   376.0      0.3666E-01  0.6468       192.4       191.9       549.8       2612.       6.540      0.6623      0.7338E-01   0.000      0.2504       0.000       0.000       0.000        92.684     40.73       20.21      0.9026      0.2000E+26   56.09      0.7912      0.2000E+26   18.78     -0.5342E-02
   376.2      0.3658E-01  0.6542       172.1       178.2       554.5       2609.       6.535      0.6686      0.7064E-01   0.000      0.2503       0.000       0.000       0.000        92.625     40.88       20.21      0.9113      0.2000E+26   55.96      0.7980      0.2000E+26   19.93     -0.5834E-02
   376.4      0.3648E-01  0.6615       151.4       164.4       559.3       2607.       6.530      0.6749      0.6786E-01   0.000      0.2500       0.000       0.000       0.000        92.566     41.04       20.21      0.9199      0.2000E+26   55.81      0.8047      0.2000E+26   21.34     -0.6336E-02
   376.6      0.3635E-01  0.6687       129.1       150.7       564.0       2604.       6.525      0.6810      0.6448E-01   0.000      0.2494       0.000       0.000       0.000        92.507     41.19       20.21      0.9284      0.2000E+26   55.62      0.8112      0.2000E+26   23.47     -0.6874E-02
   376.8      0.3621E-01  0.6760       106.9       137.0       568.7       2602.       6.521      0.6868      0.6106E-01   0.000      0.2490       0.000       0.000       0.000        92.448     41.35       20.21      0.9369      0.2000E+26   55.41      0.8175      0.2000E+26   25.95     -0.7413E-02
   377.0      0.3605E-01  0.6832       84.22       123.3       573.4       2599.       6.516      0.6913      0.5740E-01   0.000      0.2491       0.000       0.000       0.000        92.389     41.50       20.21      0.9453      0.2000E+26   55.15      0.8238      0.2000E+26   29.46     -0.7961E-02
   377.2      0.3587E-01  0.6903       61.15       122.6       577.8       2596.       6.499      0.6957      0.5371E-01   0.000      0.2493       0.000       0.000       0.000        92.326     41.65       20.21      0.9536      0.2000E+26   54.87      0.8299      0.2000E+26   34.93     -0.8520E-02
   377.4      0.3567E-01  0.6975       38.07       121.9       582.1       2594.       6.483      0.6996      0.4994E-01   0.000      0.2498       0.000       0.000       0.000        92.264     41.81       20.21      0.9619      0.2000E+26   54.58      0.8359      0.2000E+26   44.94     -0.9078E-02
   377.6      0.3547E-01  0.7046       0.000       121.1       586.5       2591.       6.466      0.7035      0.4626E-01   0.000      0.2500       0.000       0.000       0.000        92.201     41.96       20.21      0.2000E+26  0.2000E+26   54.26      0.8417      0.2000E+26  0.2000E+26 -0.1000E-01
   377.8      0.3524E-01  0.7116       0.000       120.4       590.8       2588.       6.450      0.7073      0.4271E-01   0.000      0.2499       0.000       0.000       0.000        92.139     42.11       20.21      0.2000E+26  0.2000E+26   53.92      0.8474      0.2000E+26  0.2000E+26 -0.1000E-01
   378.0      0.3501E-01  0.7186       0.000       119.7       595.2       2586.       6.433      0.7111      0.3920E-01   0.000      0.2497       0.000       0.000       0.000        92.076     42.26       20.21      0.2000E+26  0.2000E+26   53.57      0.8530      0.2000E+26  0.2000E+26 -0.1000E-01
   378.2      0.3477E-01  0.7256       0.000       118.4       599.1       2583.       6.408      0.7149      0.3574E-01   0.000      0.2494       0.000       0.000       0.000        92.011     42.41       20.21      0.2000E+26  0.2000E+26   53.20      0.8584      0.2000E+26  0.2000E+26 -0.1000E-01
   378.4      0.3452E-01  0.7325       0.000       117.1       603.1       2580.       6.382      0.7190      0.3297E-01   0.000      0.2480       0.000       0.000       0.000        91.945     42.56       20.21      0.2000E+26  0.2000E+26   52.81      0.8637      0.2000E+26  0.2000E+26 -0.1000E-01
   378.6      0.3426E-01  0.7393       0.000       115.8       607.0       2577.       6.356      0.7235      0.3068E-01   0.000      0.2459       0.000       0.000       0.000        91.879     42.71       20.21      0.2000E+26  0.2000E+26   52.41      0.8688      0.2000E+26  0.2000E+26 -0.1000E-01
   378.8      0.3399E-01  0.7461       0.000       114.5       610.9       2575.       6.330      0.7281      0.2878E-01   0.000      0.2431       0.000       0.000       0.000        91.813     42.86       20.21      0.2000E+26  0.2000E+26   52.00      0.8738      0.2000E+26  0.2000E+26 -0.1000E-01
   379.0      0.3371E-01  0.7529       0.000       113.2       614.9       2572.       6.305      0.7328      0.2705E-01   0.000      0.2401       0.000       0.000       0.000        91.748     43.01       20.21      0.2000E+26  0.2000E+26   51.58      0.8787      0.2000E+26  0.2000E+26 -0.1000E-01
   379.2      0.3343E-01  0.7596       0.000       112.4       618.4       2569.       6.272      0.7387      0.2640E-01   0.000      0.2349       0.000       0.000       0.000        91.678     43.16       20.21      0.2000E+26  0.2000E+26   51.15      0.8834      0.2000E+26  0.2000E+26 -0.1000E-01
   379.4      0.3314E-01  0.7662       0.000       111.7       622.0       2566.       6.238      0.7449      0.2597E-01   0.000      0.2292       0.000       0.000       0.000        91.609     43.31       20.21      0.2000E+26  0.2000E+26   50.70      0.8881      0.2000E+26  0.2000E+26 -0.1000E-01
   379.6      0.3284E-01  0.7728       0.000       111.0       625.5       2563.       6.205      0.7510      0.2559E-01   0.000      0.2234       0.000       0.000       0.000        91.540     43.45       20.21      0.2000E+26  0.2000E+26   50.25      0.8925      0.2000E+26  0.2000E+26 -0.1000E-01
   379.8      0.3253E-01  0.7793       0.000       110.2       629.0       2560.       6.172      0.7572      0.2522E-01   0.000      0.2176       0.000       0.000       0.000        91.471     43.60       20.21      0.2000E+26  0.2000E+26   49.78      0.8969      0.2000E+26  0.2000E+26 -0.1000E-01
   380.0      0.3222E-01  0.7857       0.000       109.5       632.6       2557.       6.139      0.7632      0.2485E-01   0.000      0.2120       0.000       0.000       0.000        91.402     43.75       20.21      0.2000E+26  0.2000E+26   49.29      0.9011      0.2000E+26  0.2000E+26 -0.1000E-01
   380.2      0.3190E-01  0.7921       0.000       108.7       635.7       2554.       6.100      0.7690      0.2448E-01   0.000      0.2065       0.000       0.000       0.000        91.330     43.89       20.21      0.2000E+26  0.2000E+26   48.80      0.9051      0.2000E+26  0.2000E+26 -0.1000E-01
   380.4      0.3156E-01  0.7984       0.000       108.0       638.8       2551.       6.060      0.7742      0.2411E-01   0.000      0.2017       0.000       0.000       0.000        91.257     44.04       20.21      0.2000E+26  0.2000E+26   48.29      0.9091      0.2000E+26  0.2000E+26 -0.1000E-01
   380.6      0.3123E-01  0.8046       0.000       107.2       641.9       2548.       6.021      0.7794      0.2375E-01   0.000      0.1968      0.4040E-05   0.000       0.000        91.185     44.18       20.21      0.2000E+26  0.2000E+26   47.78      0.9129      0.2000E+26  0.2000E+26 -0.1000E-01
   380.8      0.3089E-01  0.8108       0.000       106.5       645.1       2545.       5.981      0.7846      0.2338E-01   0.000      0.1920      0.1815E-04   0.000       0.000        91.112     44.33       20.21      0.2000E+26  0.2000E+26   47.25      0.9166      0.2000E+26  0.2000E+26 -0.1000E-01
   381.0      0.3054E-01  0.8169       0.000       105.7       648.2       2542.       5.942      0.7897      0.2301E-01   0.000      0.1872      0.3648E-04   0.000       0.000        91.040     44.47       20.21      0.2000E+26  0.2000E+26   46.72      0.9202      0.2000E+26  0.2000E+26 -0.1000E-01
   381.2      0.3018E-01  0.8230       0.000       105.0       650.9       2539.       5.897      0.7949      0.2264E-01   0.000      0.1824      0.6112E-04   0.000       0.000        90.964     44.61       20.21      0.2000E+26  0.2000E+26   46.18      0.9237      0.2000E+26  0.2000E+26 -0.1000E-01
   381.4      0.2982E-01  0.8289       0.000       104.2       653.6       2536.       5.852      0.7993      0.2227E-01   0.000      0.1783      0.1153E-03   0.000       0.000        90.888     44.76       20.21      0.2000E+26  0.2000E+26   45.63      0.9270      0.2000E+26  0.2000E+26 -0.1000E-01
   381.6      0.2946E-01  0.8348       0.000       103.4       656.4       2532.       5.808      0.8031      0.2190E-01   0.000      0.1748      0.1973E-03   0.000       0.000        90.813     44.90       20.21      0.2000E+26  0.2000E+26   45.07      0.9302      0.2000E+26  0.2000E+26 -0.1000E-01
   381.8      0.2909E-01  0.8406       0.000       102.7       659.1       2529.       5.763      0.8068      0.2153E-01   0.000      0.1714      0.2834E-03   0.000       0.000        90.737     45.04       20.21      0.2000E+26  0.2000E+26   44.50      0.9333      0.2000E+26  0.2000E+26 -0.1000E-01
   382.0      0.2871E-01  0.8464       0.000       101.9       661.8       2526.       5.718      0.8104      0.2116E-01   0.000      0.1681      0.3718E-03   0.000       0.000        90.661     45.18       20.21      0.2000E+26  0.2000E+26   43.93      0.9363      0.2000E+26  0.2000E+26 -0.1000E-01
   382.2      0.2833E-01  0.8520       0.000       101.2       664.2       2523.       5.669      0.8136      0.2079E-01   0.000      0.1651      0.4765E-03   0.000       0.000        90.582     45.32       20.21      0.2000E+26  0.2000E+26   43.35      0.9392      0.2000E+26  0.2000E+26 -0.1000E-01
   382.4      0.2795E-01  0.8576       0.000       100.4       666.5       2519.       5.620      0.8167      0.2042E-01   0.000      0.1623      0.5868E-03   0.000       0.000        90.504     45.46       20.21      0.2000E+26  0.2000E+26   42.76      0.9420      0.2000E+26  0.2000E+26 -0.1000E-01
   382.6      0.2756E-01  0.8631       0.000       99.68       668.9       2516.       5.571      0.8196      0.2005E-01   0.000      0.1597      0.7107E-03   0.000       0.000        90.425     45.60       20.21      0.2000E+26  0.2000E+26   42.17      0.9447      0.2000E+26  0.2000E+26 -0.1000E-01
   382.8      0.2717E-01  0.8686       0.000       98.92       671.3       2513.       5.522      0.8223      0.1968E-01   0.000      0.1572      0.8370E-03   0.000       0.000        90.346     45.74       20.21      0.2000E+26  0.2000E+26   41.57      0.9473      0.2000E+26  0.2000E+26 -0.1000E-01
   383.0      0.2678E-01  0.8739       0.000       98.17       673.6       2509.       5.473      0.8251      0.1931E-01   0.000      0.1546      0.9632E-03   0.000       0.000        90.267     45.88       20.21      0.2000E+26  0.2000E+26   40.97      0.9498      0.2000E+26  0.2000E+26 -0.1000E-01
   383.2      0.2639E-01  0.8792       0.000       97.42       675.6       2506.       5.420      0.8278      0.1894E-01   0.000      0.1521      0.1098E-02   0.000       0.000        90.185     46.02       20.21      0.2000E+26  0.2000E+26   40.37      0.9521      0.2000E+26  0.2000E+26 -0.1000E-01
   383.4      0.2599E-01  0.8844       0.000       96.67       677.6       2503.       5.367      0.8301      0.1856E-01   0.000      0.1500      0.1317E-02   0.000       0.000        90.103     46.16       20.21      0.2000E+26  0.2000E+26   39.76      0.9544      0.2000E+26  0.2000E+26 -0.1000E-01
   383.6      0.2559E-01  0.8895       0.000       95.92       679.6       2499.       5.315      0.8324      0.1819E-01   0.000      0.1479      0.1545E-02   0.000       0.000        90.020     46.30       20.21      0.2000E+26  0.2000E+26   39.15      0.9566      0.2000E+26  0.2000E+26 -0.1000E-01
   383.8      0.2519E-01  0.8946       0.000       95.17       681.6       2496.       5.262      0.8345      0.1782E-01   0.000      0.1459      0.1802E-02   0.000       0.000        89.938     46.43       20.21      0.2000E+26  0.2000E+26   38.53      0.9588      0.2000E+26  0.2000E+26 -0.1000E-01
   384.0      0.2478E-01  0.8995       0.000       94.42       683.6       2492.       5.210      0.8366      0.1745E-01   0.000      0.1439      0.2059E-02   0.000       0.000        89.856     46.57       20.21      0.2000E+26  0.2000E+26   37.92      0.9608      0.2000E+26  0.2000E+26 -0.1000E-01
   384.2      0.2438E-01  0.9044       0.000       93.68       685.3       2489.       5.158      0.8387      0.1708E-01   0.000      0.1419      0.2317E-02   0.000       0.000        89.771     46.71       20.21      0.2000E+26  0.2000E+26   37.30      0.9627      0.2000E+26  0.2000E+26 -0.1000E-01
   384.4      0.2397E-01  0.9092       0.000       92.94       687.0       2485.       5.106      0.8406      0.1671E-01   0.000      0.1401      0.2590E-02   0.000       0.000        89.686     46.84       20.21      0.2000E+26  0.2000E+26   36.68      0.9646      0.2000E+26  0.2000E+26 -0.1000E-01
   384.6      0.2357E-01  0.9139       0.000       92.20       688.7       2482.       5.055      0.8425      0.1634E-01   0.000      0.1383      0.2886E-02   0.000       0.000        89.600     46.98       20.21      0.2000E+26  0.2000E+26   36.06      0.9664      0.2000E+26  0.2000E+26 -0.1000E-01
   384.8      0.2316E-01  0.9185       0.000       91.46       690.4       2478.       5.003      0.8439      0.1598E-01   0.000      0.1369      0.3234E-02   0.000       0.000        89.515     47.12       20.21      0.2000E+26  0.2000E+26   35.43      0.9681      0.2000E+26  0.2000E+26 -0.1000E-01
   385.0      0.2275E-01  0.9231       0.000       90.72       692.1       2475.       4.952      0.8450      0.1563E-01   0.000      0.1358      0.3627E-02   0.000       0.000        89.430     47.25       20.21      0.2000E+26  0.2000E+26   34.81      0.9697      0.2000E+26  0.2000E+26 -0.1000E-01
   385.2      0.2235E-01  0.9276       0.000       89.99       693.5       2471.       4.900      0.8461      0.1528E-01   0.000      0.1346      0.4019E-02   0.000       0.000        89.341     47.38       20.21      0.2000E+26  0.2000E+26   34.19      0.9713      0.2000E+26  0.2000E+26 -0.1000E-01
   385.4      0.2194E-01  0.9319       0.000       89.26       694.9       2467.       4.848      0.8472      0.1493E-01   0.000      0.1335      0.4412E-02   0.000       0.000        89.253     47.52       20.21      0.2000E+26  0.2000E+26   33.56      0.9728      0.2000E+26  0.2000E+26 -0.1000E-01
   385.6      0.2153E-01  0.9363       0.000       88.53       696.3       2464.       4.796      0.8483      0.1458E-01   0.000      0.1323      0.4804E-02   0.000       0.000        89.165     47.65       20.21      0.2000E+26  0.2000E+26   32.94      0.9742      0.2000E+26  0.2000E+26 -0.1000E-01
   385.8      0.2112E-01  0.9405       0.000       87.80       697.7       2460.       4.744      0.8494      0.1423E-01   0.000      0.1312      0.5196E-02   0.000       0.000        89.076     47.79       20.21      0.2000E+26  0.2000E+26   32.31      0.9756      0.2000E+26  0.2000E+26 -0.1000E-01
   386.0      0.2071E-01  0.9446       0.000       87.08       699.1       2456.       4.692      0.8505      0.1388E-01   0.000      0.1301      0.5589E-02   0.000       0.000        88.988     47.92       20.21      0.2000E+26  0.2000E+26   31.69      0.9769      0.2000E+26  0.2000E+26 -0.1000E-01
   386.2      0.2031E-01  0.9487       0.000       86.36       700.3       2453.       4.639      0.8516      0.1353E-01   0.000      0.1289      0.5982E-02   0.000       0.000        88.896     48.05       20.21      0.2000E+26  0.2000E+26   31.07      0.9781      0.2000E+26  0.2000E+26 -0.1000E-01
   386.4      0.1990E-01  0.9527       0.000       85.65       701.4       2449.       4.586      0.8526      0.1318E-01   0.000      0.1278      0.6428E-02   0.000       0.000        88.805     48.19       20.21      0.2000E+26  0.2000E+26   30.45      0.9793      0.2000E+26  0.2000E+26 -0.1000E-01
   386.6      0.1949E-01  0.9566       0.000       84.93       702.6       2445.       4.533      0.8535      0.1283E-01   0.000      0.1267      0.6921E-02   0.000       0.000        88.713     48.32       20.21      0.2000E+26  0.2000E+26   29.83      0.9804      0.2000E+26  0.2000E+26 -0.1000E-01
   386.8      0.1909E-01  0.9604       0.000       84.22       703.7       2441.       4.480      0.8539      0.1248E-01   0.000      0.1258      0.7752E-02   0.000       0.000        88.622     48.45       20.21      0.2000E+26  0.2000E+26   29.21      0.9815      0.2000E+26  0.2000E+26 -0.1000E-01
   387.0      0.1869E-01  0.9641       0.000       83.50       704.9       2438.       4.427      0.8544      0.1213E-01   0.000      0.1249      0.8583E-02   0.000       0.000        88.531     48.58       20.21      0.2000E+26  0.2000E+26   28.60      0.9945      0.2000E+26  0.2000E+26 -0.1000E-01
   387.2      0.1829E-01  0.9678       0.000       82.78       705.8       2433.       4.323      0.8548      0.1179E-01   0.000      0.1240      0.9415E-02   0.000       0.000        88.436     48.71       20.21      0.2000E+26  0.2000E+26   27.99      0.9835      0.2000E+26  0.2000E+26 -0.1000E-01
   387.4      0.1644E-01  0.9711       0.000       82.05       706.7       2429.       4.219      0.2000E+26  0.2000E+26  0.2000E+26  0.2000E+26  0.2000E+26  0.2000E+26  0.2000E+26    88.436    0.2000E+26  0.2000E+26  0.2000E+26  0.2000E+26   25.15      0.9844      0.2000E+26  0.2000E+26 -0.1000E-01
   387.6      0.1477E-01  0.9740       0.000       81.33       707.6       2425.       4.115      0.2000E+26  0.2000E+26  0.2000E+26  0.2000E+26  0.2000E+26  0.2000E+26  0.2000E+26    88.436    0.2000E+26  0.2000E+26  0.2000E+26  0.2000E+26   22.60      0.9853      0.2000E+26  0.2000E+26 -0.1000E-01
   387.8      0.1328E-01  0.9767       0.000       80.60       708.5       2421.       4.011      0.2000E+26  0.2000E+26  0.2000E+26  0.2000E+26  0.2000E+26  0.2000E+26  0.2000E+26    88.436    0.2000E+26  0.2000E+26  0.2000E+26  0.2000E+26   20.31      0.9861      0.2000E+26  0.2000E+26 -0.1000E-01
   388.0      0.1194E-01  0.9791       0.000       79.88       709.4       2417.       3.907      0.2000E+26  0.2000E+26  0.2000E+26  0.2000E+26  0.2000E+26  0.2000E+26  0.2000E+26    88.436    0.2000E+26  0.2000E+26  0.2000E+26  0.2000E+26   18.26      0.9869      0.2000E+26  0.2000E+26 -0.1000E-01
   388.2      0.1073E-01  0.9812       0.000       79.13       710.0       2412.       3.786      0.2000E+26  0.2000E+26  0.2000E+26  0.2000E+26  0.2000E+26  0.2000E+26  0.2000E+26    88.436    0.2000E+26  0.2000E+26  0.2000E+26  0.2000E+26   16.42      0.9877      0.2000E+26  0.2000E+26 -0.1000E-01
   388.4      0.9652E-02  0.9831       0.000       78.39       710.7       2407.       3.664      0.2000E+26  0.2000E+26  0.2000E+26  0.2000E+26  0.2000E+26  0.2000E+26  0.2000E+26    88.436    0.2000E+26  0.2000E+26  0.2000E+26  0.2000E+26   14.77      0.9884      0.2000E+26  0.2000E+26 -0.1000E-01
   388.6      0.8676E-02  0.9849       0.000       77.64       711.3       2403.       3.543      0.2000E+26  0.2000E+26  0.2000E+26  0.2000E+26  0.2000E+26  0.2000E+26  0.2000E+26    88.436    0.2000E+26  0.2000E+26  0.2000E+26  0.2000E+26   13.27      0.9891      0.2000E+26  0.2000E+26 -0.1000E-01
   388.8      0.7802E-02  0.9864       0.000       76.89       712.0       2398.       3.422      0.2000E+26  0.2000E+26  0.2000E+26  0.2000E+26  0.2000E+26  0.2000E+26  0.2000E+26    88.436    0.2000E+26  0.2000E+26  0.2000E+26  0.2000E+26   11.94      0.9897      0.2000E+26  0.2000E+26 -0.1000E-01
   389.0      0.7016E-02  0.9878       0.000       76.15       712.6       2393.       3.300      0.2000E+26  0.2000E+26  0.2000E+26  0.2000E+26  0.2000E+26  0.2000E+26  0.2000E+26    88.436    0.2000E+26  0.2000E+26  0.2000E+26  0.2000E+26   10.73      0.9903      0.2000E+26  0.2000E+26 -0.1000E-01
   389.2      0.6309E-02  0.9891       0.000       75.41       713.1       2388.       3.186      0.2000E+26  0.2000E+26  0.2000E+26  0.2000E+26  0.2000E+26  0.2000E+26  0.2000E+26    88.436    0.2000E+26  0.2000E+26  0.2000E+26  0.2000E+26   9.653      0.9909      0.2000E+26  0.2000E+26 -0.1000E-01
   389.4      0.5673E-02  0.9902       0.000       74.67       713.5       2383.       3.071      0.2000E+26  0.2000E+26  0.2000E+26  0.2000E+26  0.2000E+26  0.2000E+26  0.2000E+26    88.436    0.2000E+26  0.2000E+26  0.2000E+26  0.2000E+26   8.679      0.9914      0.2000E+26  0.2000E+26 -0.1000E-01
   389.6      0.5098E-02  0.9913       0.000       73.93       714.0       2378.       2.957      0.2000E+26  0.2000E+26  0.2000E+26  0.2000E+26  0.2000E+26  0.2000E+26  0.2000E+26    88.436    0.2000E+26  0.2000E+26  0.2000E+26  0.2000E+26   7.800      0.9920      0.2000E+26  0.2000E+26 -0.1000E-01
   389.8      0.4583E-02  0.9922       0.000       73.19       714.4       2373.       2.842      0.2000E+26  0.2000E+26  0.2000E+26  0.2000E+26  0.2000E+26  0.2000E+26  0.2000E+26    88.436    0.2000E+26  0.2000E+26  0.2000E+26  0.2000E+26   7.012      0.9924      0.2000E+26  0.2000E+26 -0.1000E-01
   390.0      0.4120E-02  0.9930       0.000       72.46       714.9       2368.       2.728      0.2000E+26  0.2000E+26  0.2000E+26  0.2000E+26  0.2000E+26  0.2000E+26  0.2000E+26    88.436    0.2000E+26  0.2000E+26  0.2000E+26  0.2000E+26   6.304      0.9929      0.2000E+26  0.2000E+26 -0.1000E-01
   390.2      0.3703E-02  0.9937       0.000       71.71       715.2       2363.       2.606      0.2000E+26  0.2000E+26  0.2000E+26  0.2000E+26  0.2000E+26  0.2000E+26  0.2000E+26    88.436    0.2000E+26  0.2000E+26  0.2000E+26  0.2000E+26   5.666      0.9933      0.2000E+26  0.2000E+26 -0.1000E-01
   390.4      0.3328E-02  0.9944       0.000       70.97       715.5       2358.       2.485      0.2000E+26  0.2000E+26  0.2000E+26  0.2000E+26  0.2000E+26  0.2000E+26  0.2000E+26    88.436    0.2000E+26  0.2000E+26  0.2000E+26  0.2000E+26   5.092      0.9938      0.2000E+26  0.2000E+26 -0.1000E-01
   390.6      0.2989E-02  0.9950       0.000       70.23       715.8       2352.       2.363      0.2000E+26  0.2000E+26  0.2000E+26  0.2000E+26  0.2000E+26  0.2000E+26  0.2000E+26    88.436    0.2000E+26  0.2000E+26  0.2000E+26  0.2000E+26   4.574      0.9941      0.2000E+26  0.2000E+26 -0.1000E-01
   390.8       0.000      0.9950       0.000       69.49       716.1       2347.       2.242      0.2000E+26  0.2000E+26  0.2000E+26  0.2000E+26  0.2000E+26  0.2000E+26  0.2000E+26    88.436    0.2000E+26  0.2000E+26  0.2000E+26  0.2000E+26   0.000      0.9945      0.2000E+26  0.2000E+26 -0.1000E-01
 
